2theta /stopnie	natê¿enie/jednostki umowne
 10.000      10.000
 10.010      10.000
 10.020      10.000
 10.030      10.000
 10.040      10.000
 10.050      10.000
 10.060      10.000
 10.070      10.000
 10.080      10.000
 10.090      10.000
 10.100      10.000
 10.110      10.000
 10.120      10.000
 10.130      10.000
 10.140      10.000
 10.150      10.000
 10.160      10.000
 10.170      10.000
 10.180      10.000
 10.190      10.000
 10.200      10.000
 10.210      10.000
 10.220      10.000
 10.230      10.000
 10.240      10.000
 10.250      10.000
 10.260      10.000
 10.270      10.000
 10.281      10.000
 10.291      10.000
 10.301      10.000
 10.311      10.000
 10.321      10.000
 10.331      10.000
 10.341      10.000
 10.351      10.000
 10.361      10.000
 10.371      10.000
 10.381      10.000
 10.391      10.000
 10.401      10.000
 10.411      10.000
 10.421      10.000
 10.431      10.000
 10.441      10.000
 10.451      10.000
 10.461      10.000
 10.471      10.000
 10.481      10.000
 10.491      10.000
 10.501      10.000
 10.511      10.000
 10.521      10.000
 10.531      10.000
 10.541      10.000
 10.551      10.000
 10.561      10.000
 10.571      10.000
 10.581      10.000
 10.591      10.000
 10.601      10.000
 10.611      10.000
 10.621      10.000
 10.631      10.000
 10.641      10.000
 10.651      10.000
 10.661      10.000
 10.671      10.000
 10.681      10.000
 10.691      10.000
 10.701      10.000
 10.711      10.000
 10.721      10.000
 10.731      10.000
 10.741      10.000
 10.751      10.000
 10.761      10.000
 10.771      10.000
 10.781      10.000
 10.791      10.000
 10.801      10.000
 10.811      10.000
 10.821      10.000
 10.831      10.000
 10.842      10.000
 10.852      10.000
 10.862      10.000
 10.872      10.000
 10.882      10.000
 10.892      10.000
 10.902      10.000
 10.912      10.000
 10.922      10.000
 10.932      10.000
 10.942      10.000
 10.952      10.000
 10.962      10.000
 10.972      10.000
 10.982      10.000
 10.992      10.000
 11.002      10.000
 11.012      10.000
 11.022      10.000
 11.032      10.000
 11.042      10.000
 11.052      10.000
 11.062      10.000
 11.072      10.000
 11.082      10.000
 11.092      10.000
 11.102      10.000
 11.112      10.000
 11.122      10.000
 11.132      10.000
 11.142      10.000
 11.152      10.000
 11.162      10.000
 11.172      10.000
 11.182      10.000
 11.192      10.000
 11.202      10.000
 11.212      10.000
 11.222      10.000
 11.232      10.000
 11.242      10.000
 11.252      10.000
 11.262      10.000
 11.272      10.000
 11.282      10.000
 11.292      10.000
 11.302      10.000
 11.312      10.000
 11.322      10.000
 11.332      10.000
 11.342      10.000
 11.352      10.000
 11.362      10.000
 11.372      10.000
 11.382      10.000
 11.393      10.000
 11.403      10.000
 11.413      10.000
 11.423      10.000
 11.433      10.000
 11.443      10.000
 11.453      10.000
 11.463      10.000
 11.473      10.000
 11.483      10.000
 11.493      10.000
 11.503      10.000
 11.513      10.000
 11.523      10.000
 11.533      10.000
 11.543      10.000
 11.553      10.000
 11.563      10.000
 11.573      10.000
 11.583      10.000
 11.593      10.000
 11.603      10.000
 11.613      10.000
 11.623      10.000
 11.633      10.000
 11.643      10.000
 11.653      10.000
 11.663      10.000
 11.673      10.000
 11.683      10.000
 11.693      10.000
 11.703      10.000
 11.713      10.000
 11.723      10.000
 11.733      10.000
 11.743      10.000
 11.753      10.000
 11.763      10.000
 11.773      10.000
 11.783      10.000
 11.793      10.000
 11.803      10.000
 11.813      10.000
 11.823      10.000
 11.833      10.000
 11.843      10.000
 11.853      10.000
 11.863      10.000
 11.873      10.000
 11.883      10.000
 11.893      10.000
 11.903      10.000
 11.913      10.000
 11.923      10.000
 11.933      10.000
 11.943      10.000
 11.954      10.000
 11.964      10.000
 11.974      10.000
 11.984      10.000
 11.994      10.000
 12.004      10.000
 12.014      10.000
 12.024      10.000
 12.034      10.000
 12.044      10.000
 12.054      10.000
 12.064      10.000
 12.074      10.000
 12.084      10.000
 12.094      10.000
 12.104      10.000
 12.114      10.000
 12.124      10.000
 12.134      10.000
 12.144      10.000
 12.154      10.000
 12.164      10.000
 12.174      10.000
 12.184      10.000
 12.194      10.000
 12.204      10.000
 12.214      10.000
 12.224      10.000
 12.234      10.000
 12.244      10.000
 12.254      10.000
 12.264      10.000
 12.274      10.000
 12.284      10.000
 12.294      10.000
 12.304      10.000
 12.314      10.000
 12.324      10.000
 12.334      10.000
 12.344      10.000
 12.354      10.000
 12.364      10.000
 12.374      10.000
 12.384      10.000
 12.394      10.000
 12.404      10.000
 12.414      10.000
 12.424      10.000
 12.434      10.000
 12.444      10.000
 12.454      10.000
 12.464      10.000
 12.474      10.000
 12.484      10.000
 12.494      10.000
 12.505      10.000
 12.515      10.000
 12.525      10.000
 12.535      10.000
 12.545      10.000
 12.555      10.000
 12.565      10.000
 12.575      10.000
 12.585      10.000
 12.595      10.000
 12.605      10.000
 12.615      10.000
 12.625      10.000
 12.635      10.000
 12.645      10.000
 12.655      10.000
 12.665      10.000
 12.675      10.000
 12.685      10.000
 12.695      10.000
 12.705      10.000
 12.715      10.000
 12.725      10.000
 12.735      10.000
 12.745      10.000
 12.755      10.000
 12.765      10.000
 12.775      10.000
 12.785      10.000
 12.795      10.000
 12.805      10.000
 12.815      10.000
 12.825      10.000
 12.835      10.000
 12.845      10.000
 12.855      10.000
 12.865      10.000
 12.875      10.000
 12.885      10.000
 12.895      10.000
 12.905      10.000
 12.915      10.000
 12.925      10.000
 12.935      10.000
 12.945      10.000
 12.955      10.000
 12.965      10.000
 12.975      10.000
 12.985      10.000
 12.995      10.000
 13.005      10.000
 13.015      10.000
 13.025      10.000
 13.035      10.000
 13.045      10.000
 13.055      10.000
 13.066      10.000
 13.076      10.000
 13.086      10.000
 13.096      10.000
 13.106      10.000
 13.116      10.000
 13.126      10.000
 13.136      10.000
 13.146      10.000
 13.156      10.000
 13.166      10.000
 13.176      10.000
 13.186      10.000
 13.196      10.000
 13.206      10.000
 13.216      10.000
 13.226      10.000
 13.236      10.000
 13.246      10.000
 13.256      10.000
 13.266      10.000
 13.276      10.000
 13.286      10.000
 13.296      10.000
 13.306      10.000
 13.316      10.000
 13.326      10.000
 13.336      10.000
 13.346      10.000
 13.356      10.000
 13.366      10.000
 13.376      10.000
 13.386      10.000
 13.396      10.000
 13.406      10.000
 13.416      10.000
 13.426      10.000
 13.436      10.000
 13.446      10.000
 13.456      10.000
 13.466      10.000
 13.476      10.000
 13.486      10.000
 13.496      10.000
 13.506      10.000
 13.516      10.000
 13.526      10.000
 13.536      10.000
 13.546      10.000
 13.556      10.000
 13.566      10.000
 13.576      10.000
 13.586      10.000
 13.596      10.000
 13.606      10.000
 13.616      10.000
 13.627      10.000
 13.637      10.000
 13.647      10.000
 13.657      10.000
 13.667      10.000
 13.677      10.000
 13.687      10.000
 13.697      10.000
 13.707      10.000
 13.717      10.000
 13.727      10.000
 13.737      10.000
 13.747      10.000
 13.757      10.000
 13.767      10.000
 13.777      10.000
 13.787      10.000
 13.797      10.000
 13.807      10.000
 13.817      10.000
 13.827      10.000
 13.837      10.000
 13.847      10.027
 13.857      10.079
 13.867      10.219
 13.877      10.574
 13.887      11.423
 13.897      13.339
 13.907      17.410
 13.917      25.554
 13.927      40.882
 13.937      67.991
 13.947     113.007
 13.957     183.064
 13.967     285.015
 13.977     423.386
 13.987     597.721
 13.997     800.372
 14.007    1015.357
 14.017    1219.574
 14.027    1386.519
 14.037    1491.703
 14.047    1518.584
 14.057    1462.811
 14.067    1333.359
 14.077    1150.205
 14.087     939.206
 14.097     726.279
 14.107     532.242
 14.117     370.156
 14.127     244.941
 14.137     154.956
 14.147      94.595
 14.157      56.699
 14.167      34.383
 14.178      22.041
 14.188      15.625
 14.198      12.485
 14.208      11.039
 14.218      10.411
 14.228      10.154
 14.238      10.054
 14.248      10.000
 14.258      10.000
 14.268      10.000
 14.278      10.000
 14.288      10.000
 14.298      10.000
 14.308      10.000
 14.318      10.000
 14.328      10.000
 14.338      10.000
 14.348      10.000
 14.358      10.000
 14.368      10.000
 14.378      10.000
 14.388      10.000
 14.398      10.000
 14.408      10.000
 14.418      10.000
 14.428      10.000
 14.438      10.000
 14.448      10.000
 14.458      10.000
 14.468      10.000
 14.478      10.000
 14.488      10.000
 14.498      10.000
 14.508      10.000
 14.518      10.000
 14.528      10.000
 14.538      10.000
 14.548      10.000
 14.558      10.000
 14.568      10.000
 14.578      10.000
 14.588      10.000
 14.598      10.000
 14.608      10.000
 14.618      10.000
 14.628      10.000
 14.638      10.000
 14.648      10.000
 14.658      10.000
 14.668      10.000
 14.678      10.000
 14.688      10.000
 14.698      10.000
 14.708      10.000
 14.718      10.000
 14.728      10.000
 14.739      10.000
 14.749      10.000
 14.759      10.000
 14.769      10.000
 14.779      10.000
 14.789      10.000
 14.799      10.000
 14.809      10.000
 14.819      10.000
 14.829      10.000
 14.839      10.000
 14.849      10.000
 14.859      10.000
 14.869      10.000
 14.879      10.000
 14.889      10.000
 14.899      10.000
 14.909      10.000
 14.919      10.000
 14.929      10.000
 14.939      10.000
 14.949      10.000
 14.959      10.000
 14.969      10.000
 14.979      10.000
 14.989      10.000
 14.999      10.000
 15.009      10.000
 15.019      10.000
 15.029      10.000
 15.039      10.000
 15.049      10.000
 15.059      10.000
 15.069      10.000
 15.079      10.000
 15.089      10.000
 15.099      10.000
 15.109      10.000
 15.119      10.000
 15.129      10.000
 15.139      10.000
 15.149      10.000
 15.159      10.000
 15.169      10.000
 15.179      10.000
 15.189      10.000
 15.199      10.000
 15.209      10.000
 15.219      10.000
 15.229      10.000
 15.239      10.000
 15.249      10.000
 15.259      10.000
 15.269      10.000
 15.279      10.000
 15.290      10.000
 15.300      10.000
 15.310      10.000
 15.320      10.000
 15.330      10.000
 15.340      10.000
 15.350      10.000
 15.360      10.000
 15.370      10.000
 15.380      10.000
 15.390      10.000
 15.400      10.000
 15.410      10.000
 15.420      10.000
 15.430      10.000
 15.440      10.000
 15.450      10.000
 15.460      10.000
 15.470      10.000
 15.480      10.000
 15.490      10.000
 15.500      10.000
 15.510      10.000
 15.520      10.000
 15.530      10.000
 15.540      10.000
 15.550      10.000
 15.560      10.000
 15.570      10.000
 15.580      10.000
 15.590      10.000
 15.600      10.000
 15.610      10.000
 15.620      10.000
 15.630      10.000
 15.640      10.000
 15.650      10.000
 15.660      10.000
 15.670      10.000
 15.680      10.000
 15.690      10.000
 15.700      10.000
 15.710      10.000
 15.720      10.000
 15.730      10.000
 15.740      10.000
 15.750      10.000
 15.760      10.000
 15.770      10.000
 15.780      10.000
 15.790      10.000
 15.800      10.000
 15.810      10.000
 15.820      10.000
 15.830      10.000
 15.840      10.000
 15.851      10.000
 15.861      10.000
 15.871      10.000
 15.881      10.000
 15.891      10.000
 15.901      10.000
 15.911      10.000
 15.921      10.000
 15.931      10.000
 15.941      10.000
 15.951      10.000
 15.961      10.000
 15.971      10.000
 15.981      10.000
 15.991      10.000
 16.001      10.000
 16.011      10.000
 16.021      10.000
 16.031      10.000
 16.041      10.000
 16.051      10.000
 16.061      10.000
 16.071      10.000
 16.081      10.000
 16.091      10.000
 16.101      10.000
 16.111      10.000
 16.121      10.000
 16.131      10.000
 16.141      10.000
 16.151      10.000
 16.161      10.000
 16.171      10.000
 16.181      10.000
 16.191      10.000
 16.201      10.000
 16.211      10.000
 16.221      10.000
 16.231      10.000
 16.241      10.000
 16.251      10.000
 16.261      10.000
 16.271      10.000
 16.281      10.000
 16.291      10.000
 16.301      10.000
 16.311      10.000
 16.321      10.000
 16.331      10.000
 16.341      10.000
 16.351      10.000
 16.361      10.000
 16.371      10.000
 16.381      10.000
 16.391      10.000
 16.402      10.000
 16.412      10.000
 16.422      10.000
 16.432      10.000
 16.442      10.000
 16.452      10.000
 16.462      10.000
 16.472      10.000
 16.482      10.000
 16.492      10.000
 16.502      10.000
 16.512      10.000
 16.522      10.000
 16.532      10.000
 16.542      10.000
 16.552      10.000
 16.562      10.000
 16.572      10.000
 16.582      10.000
 16.592      10.000
 16.602      10.000
 16.612      10.000
 16.622      10.000
 16.632      10.000
 16.642      10.000
 16.652      10.000
 16.662      10.000
 16.672      10.000
 16.682      10.000
 16.692      10.000
 16.702      10.000
 16.712      10.000
 16.722      10.000
 16.732      10.000
 16.742      10.000
 16.752      10.000
 16.762      10.000
 16.772      10.000
 16.782      10.000
 16.792      10.000
 16.802      10.000
 16.812      10.000
 16.822      10.000
 16.832      10.000
 16.842      10.000
 16.852      10.000
 16.862      10.000
 16.872      10.000
 16.882      10.000
 16.892      10.000
 16.902      10.000
 16.912      10.000
 16.922      10.000
 16.932      10.000
 16.942      10.000
 16.952      10.000
 16.963      10.000
 16.973      10.000
 16.983      10.000
 16.993      10.000
 17.003      10.000
 17.013      10.000
 17.023      10.000
 17.033      10.000
 17.043      10.000
 17.053      10.000
 17.063      10.000
 17.073      10.000
 17.083      10.000
 17.093      10.000
 17.103      10.000
 17.113      10.000
 17.123      10.000
 17.133      10.000
 17.143      10.000
 17.153      10.000
 17.163      10.000
 17.173      10.000
 17.183      10.000
 17.193      10.000
 17.203      10.000
 17.213      10.000
 17.223      10.000
 17.233      10.000
 17.243      10.000
 17.253      10.000
 17.263      10.000
 17.273      10.000
 17.283      10.000
 17.293      10.000
 17.303      10.000
 17.313      10.000
 17.323      10.000
 17.333      10.000
 17.343      10.000
 17.353      10.000
 17.363      10.000
 17.373      10.000
 17.383      10.000
 17.393      10.000
 17.403      10.000
 17.413      10.000
 17.423      10.000
 17.433      10.000
 17.443      10.000
 17.453      10.000
 17.463      10.000
 17.473      10.000
 17.483      10.000
 17.493      10.000
 17.503      10.000
 17.514      10.000
 17.524      10.000
 17.534      10.000
 17.544      10.000
 17.554      10.000
 17.564      10.000
 17.574      10.000
 17.584      10.000
 17.594      10.000
 17.604      10.000
 17.614      10.000
 17.624      10.000
 17.634      10.000
 17.644      10.000
 17.654      10.000
 17.664      10.000
 17.674      10.000
 17.684      10.000
 17.694      10.000
 17.704      10.000
 17.714      10.000
 17.724      10.000
 17.734      10.000
 17.744      10.000
 17.754      10.000
 17.764      10.000
 17.774      10.000
 17.784      10.000
 17.794      10.000
 17.804      10.000
 17.814      10.000
 17.824      10.000
 17.834      10.000
 17.844      10.000
 17.854      10.000
 17.864      10.000
 17.874      10.000
 17.884      10.000
 17.894      10.000
 17.904      10.000
 17.914      10.000
 17.924      10.000
 17.934      10.000
 17.944      10.000
 17.954      10.000
 17.964      10.000
 17.974      10.000
 17.984      10.000
 17.994      10.000
 18.004      10.000
 18.014      10.000
 18.024      10.000
 18.034      10.000
 18.044      10.000
 18.054      10.000
 18.064      10.000
 18.075      10.000
 18.085      10.000
 18.095      10.000
 18.105      10.000
 18.115      10.000
 18.125      10.000
 18.135      10.000
 18.145      10.000
 18.155      10.000
 18.165      10.000
 18.175      10.000
 18.185      10.000
 18.195      10.000
 18.205      10.000
 18.215      10.000
 18.225      10.000
 18.235      10.000
 18.245      10.000
 18.255      10.000
 18.265      10.000
 18.275      10.000
 18.285      10.000
 18.295      10.000
 18.305      10.000
 18.315      10.000
 18.325      10.000
 18.335      10.000
 18.345      10.000
 18.355      10.000
 18.365      10.000
 18.375      10.000
 18.385      10.000
 18.395      10.000
 18.405      10.000
 18.415      10.000
 18.425      10.000
 18.435      10.000
 18.445      10.000
 18.455      10.000
 18.465      10.000
 18.475      10.000
 18.485      10.000
 18.495      10.000
 18.505      10.000
 18.515      10.000
 18.525      10.000
 18.535      10.000
 18.545      10.000
 18.555      10.000
 18.565      10.000
 18.575      10.000
 18.585      10.000
 18.595      10.000
 18.605      10.000
 18.615      10.000
 18.625      10.000
 18.636      10.000
 18.646      10.000
 18.656      10.000
 18.666      10.000
 18.676      10.000
 18.686      10.000
 18.696      10.000
 18.706      10.000
 18.716      10.000
 18.726      10.000
 18.736      10.000
 18.746      10.000
 18.756      10.000
 18.766      10.000
 18.776      10.000
 18.786      10.000
 18.796      10.000
 18.806      10.000
 18.816      10.000
 18.826      10.000
 18.836      10.000
 18.846      10.000
 18.856      10.000
 18.866      10.000
 18.876      10.000
 18.886      10.000
 18.896      10.000
 18.906      10.000
 18.916      10.000
 18.926      10.000
 18.936      10.000
 18.946      10.000
 18.956      10.000
 18.966      10.000
 18.976      10.000
 18.986      10.000
 18.996      10.000
 19.006      10.000
 19.016      10.000
 19.026      10.000
 19.036      10.000
 19.046      10.000
 19.056      10.000
 19.066      10.000
 19.076      10.000
 19.086      10.000
 19.096      10.000
 19.106      10.000
 19.116      10.000
 19.126      10.000
 19.136      10.000
 19.146      10.000
 19.156      10.000
 19.166      10.000
 19.176      10.000
 19.187      10.000
 19.197      10.000
 19.207      10.000
 19.217      10.000
 19.227      10.000
 19.237      10.000
 19.247      10.000
 19.257      10.000
 19.267      10.000
 19.277      10.000
 19.287      10.000
 19.297      10.000
 19.307      10.000
 19.317      10.000
 19.327      10.000
 19.337      10.000
 19.347      10.000
 19.357      10.000
 19.367      10.000
 19.377      10.000
 19.387      10.000
 19.397      10.000
 19.407      10.000
 19.417      10.000
 19.427      10.000
 19.437      10.000
 19.447      10.000
 19.457      10.000
 19.467      10.000
 19.477      10.000
 19.487      10.000
 19.497      10.000
 19.507      10.000
 19.517      10.000
 19.527      10.000
 19.537      10.000
 19.547      10.000
 19.557      10.000
 19.567      10.000
 19.577      10.000
 19.587      10.000
 19.597      10.000
 19.607      10.000
 19.617      10.000
 19.627      10.000
 19.637      10.000
 19.647      10.000
 19.657      10.000
 19.667      10.000
 19.677      10.000
 19.687      10.000
 19.697      10.000
 19.707      10.000
 19.717      10.011
 19.727      10.032
 19.737      10.087
 19.748      10.224
 19.758      10.549
 19.768      11.272
 19.778      12.786
 19.788      15.773
 19.798      21.313
 19.808      30.973
 19.818      46.773
 19.828      70.985
 19.838     105.666
 19.848     151.957
 19.858     209.230
 19.868     274.475
 19.878     342.098
 19.888     404.421
 19.898     453.085
 19.908     480.816
 19.918     483.196
 19.928     459.847
 19.938     414.494
 19.948     354.032
 19.958     286.770
 19.968     220.595
 19.978     161.577
