2theta /stopnie       natê¿enie/jednostki umowne
 10.000       0.000
 10.010       0.000
 10.020       0.000
 10.030       0.000
 10.040       0.000
 10.050       0.000
 10.060       0.000
 10.070       0.000
 10.080       0.000
 10.090       0.000
 10.100       0.000
 10.110       0.000
 10.120       0.000
 10.130       0.000
 10.140       0.000
 10.150       0.000
 10.160       0.000
 10.170       0.000
 10.180       0.000
 10.190       0.000
 10.200       0.000
 10.210       0.000
 10.220       0.000
 10.230       0.000
 10.240       0.000
 10.250       0.000
 10.260       0.000
 10.270       0.000
 10.281       0.000
 10.291       0.000
 10.301       0.000
 10.311       0.000
 10.321       0.000
 10.331       0.000
 10.341       0.000
 10.351       0.000
 10.361       0.000
 10.371       0.000
 10.381       0.000
 10.391       0.000
 10.401       0.000
 10.411       0.000
 10.421       0.000
 10.431       0.000
 10.441       0.000
 10.451       0.000
 10.461       0.000
 10.471       0.000
 10.481       0.000
 10.491       0.000
 10.501       0.000
 10.511       0.000
 10.521       0.000
 10.531       0.000
 10.541       0.000
 10.551       0.000
 10.561       0.000
 10.571       0.000
 10.581       0.000
 10.591       0.000
 10.601       0.000
 10.611       0.000
 10.621       0.000
 10.631       0.000
 10.641       0.000
 10.651       0.000
 10.661       0.000
 10.671       0.000
 10.681       0.000
 10.691       0.000
 10.701       0.000
 10.711       0.000
 10.721       0.000
 10.731       0.000
 10.741       0.000
 10.751       0.000
 10.761       0.000
 10.771       0.000
 10.781       0.000
 10.791       0.000
 10.801       0.000
 10.811       0.000
 10.821       0.000
 10.831       0.000
 10.842       0.000
 10.852       0.000
 10.862       0.000
 10.872       0.000
 10.882       0.000
 10.892       0.000
 10.902       0.000
 10.912       0.000
 10.922       0.000
 10.932       0.000
 10.942       0.000
 10.952       0.000
 10.962       0.000
 10.972       0.000
 10.982       0.000
 10.992       0.000
 11.002       0.000
 11.012       0.000
 11.022       0.000
 11.032       0.000
 11.042       0.000
 11.052       0.000
 11.062       0.000
 11.072       0.000
 11.082       0.000
 11.092       0.000
 11.102       0.000
 11.112       0.000
 11.122       0.000
 11.132       0.000
 11.142       0.000
 11.152       0.000
 11.162       0.000
 11.172       0.000
 11.182       0.000
 11.192       0.000
 11.202       0.000
 11.212       0.000
 11.222       0.000
 11.232       0.000
 11.242       0.000
 11.252       0.000
 11.262       0.000
 11.272       0.000
 11.282       0.000
 11.292       0.000
 11.302       0.000
 11.312       0.000
 11.322       0.000
 11.332       0.000
 11.342       0.000
 11.352       0.000
 11.362       0.000
 11.372       0.000
 11.382       0.000
 11.393       0.000
 11.403       0.000
 11.413       0.000
 11.423       0.000
 11.433       0.000
 11.443       0.000
 11.453       0.000
 11.463       0.000
 11.473       0.000
 11.483       0.000
 11.493       0.000
 11.503       0.000
 11.513       0.000
 11.523       0.000
 11.533       0.000
 11.543       0.000
 11.553       0.000
 11.563       0.000
 11.573       0.000
 11.583       0.000
 11.593       0.000
 11.603       0.000
 11.613       0.000
 11.623       0.000
 11.633       0.000
 11.643       0.000
 11.653       0.000
 11.663       0.000
 11.673       0.000
 11.683       0.000
 11.693       0.000
 11.703       0.000
 11.713       0.000
 11.723       0.000
 11.733       0.000
 11.743       0.000
 11.753       0.000
 11.763       0.000
 11.773       0.000
 11.783       0.000
 11.793       0.000
 11.803       0.000
 11.813       0.000
 11.823       0.000
 11.833       0.000
 11.843       0.000
 11.853       0.000
 11.863       0.000
 11.873       0.000
 11.883       0.000
 11.893       0.000
 11.903       0.000
 11.913       0.000
 11.923       0.000
 11.933       0.000
 11.943       0.000
 11.954       0.000
 11.964       0.000
 11.974       0.000
 11.984       0.000
 11.994       0.000
 12.004       0.000
 12.014       0.000
 12.024       0.000
 12.034       0.000
 12.044       0.000
 12.054       0.000
 12.064       0.000
 12.074       0.000
 12.084       0.000
 12.094       0.000
 12.104       0.000
 12.114       0.000
 12.124       0.000
 12.134       0.000
 12.144       0.000
 12.154       0.000
 12.164       0.000
 12.174       0.000
 12.184       0.000
 12.194       0.000
 12.204       0.000
 12.214       0.000
 12.224       0.000
 12.234       0.000
 12.244       0.000
 12.254       0.000
 12.264       0.000
 12.274       0.000
 12.284       0.000
 12.294       0.000
 12.304       0.000
 12.314       0.000
 12.324       0.000
 12.334       0.000
 12.344       0.000
 12.354       0.000
 12.364       0.000
 12.374       0.000
 12.384       0.000
 12.394       0.000
 12.404       0.000
 12.414       0.000
 12.424       0.000
 12.434       0.000
 12.444       0.000
 12.454       0.000
 12.464       0.000
 12.474       0.000
 12.484       0.000
 12.494       0.000
 12.505       0.000
 12.515       0.000
 12.525       0.000
 12.535       0.000
 12.545       0.000
 12.555       0.000
 12.565       0.000
 12.575       0.000
 12.585       0.000
 12.595       0.000
 12.605       0.000
 12.615       0.000
 12.625       0.000
 12.635       0.000
 12.645       0.000
 12.655       0.000
 12.665       0.000
 12.675       0.000
 12.685       0.000
 12.695       0.000
 12.705       0.000
 12.715       0.000
 12.725       0.000
 12.735       0.000
 12.745       0.000
 12.755       0.000
 12.765       0.000
 12.775       0.000
 12.785       0.000
 12.795       0.000
 12.805       0.000
 12.815       0.000
 12.825       0.000
 12.835       0.000
 12.845       0.000
 12.855       0.000
 12.865       0.000
 12.875       0.000
 12.885       0.000
 12.895       0.000
 12.905       0.000
 12.915       0.000
 12.925       0.000
 12.935       0.000
 12.945       0.000
 12.955       0.000
 12.965       0.000
 12.975       0.000
 12.985       0.000
 12.995       0.000
 13.005       0.000
 13.015       0.000
 13.025       0.000
 13.035       0.000
 13.045       0.000
 13.055       0.000
 13.066       0.000
 13.076       0.000
 13.086       0.000
 13.096       0.000
 13.106       0.000
 13.116       0.000
 13.126       0.000
 13.136       0.000
 13.146       0.000
 13.156       0.000
 13.166       0.000
 13.176       0.000
 13.186       0.000
 13.196       0.000
 13.206       0.000
 13.216       0.000
 13.226       0.000
 13.236       0.000
 13.246       0.000
 13.256       0.000
 13.266       0.000
 13.276       0.000
 13.286       0.000
 13.296       0.000
 13.306       0.000
 13.316       0.000
 13.326       0.000
 13.336       0.000
 13.346       0.000
 13.356       0.000
 13.366       0.000
 13.376       0.000
 13.386       0.000
 13.396       0.000
 13.406       0.000
 13.416       0.000
 13.426       0.000
 13.436       0.000
 13.446       0.000
 13.456       0.000
 13.466       0.000
 13.476       0.000
 13.486       0.000
 13.496       0.000
 13.506       0.000
 13.516       0.000
 13.526       0.000
 13.536       0.000
 13.546       0.000
 13.556       0.000
 13.566       0.000
 13.576       0.000
 13.586       0.000
 13.596       0.000
 13.606       0.000
 13.616       0.000
 13.627       0.000
 13.637       0.000
 13.647       0.000
 13.657       0.000
 13.667       0.000
 13.677       0.000
 13.687       0.000
 13.697       0.000
 13.707       0.000
 13.717       0.000
 13.727       0.000
 13.737       0.000
 13.747       0.000
 13.757       0.000
 13.767       0.000
 13.777       0.000
 13.787       0.000
 13.797       0.000
 13.807       0.000
 13.817       0.000
 13.827       0.000
 13.837       0.000
 13.847       0.000
 13.857       0.000
 13.867       0.000
 13.877       0.000
 13.887       0.000
 13.897       0.000
 13.907       0.000
 13.917       0.000
 13.927       0.000
 13.937       0.000
 13.947       0.000
 13.957       0.000
 13.967       0.000
 13.977       0.000
 13.987       0.000
 13.997       0.000
 14.007       0.000
 14.017       0.000
 14.027       0.000
 14.037       0.000
 14.047       0.000
 14.057       0.000
 14.067       0.000
 14.077       0.000
 14.087       0.000
 14.097       0.000
 14.107       0.000
 14.117       0.000
 14.127       0.000
 14.137       0.000
 14.147       0.000
 14.157       0.000
 14.167       0.000
 14.178       0.000
 14.188       0.000
 14.198       0.000
 14.208       0.000
 14.218       0.000
 14.228       0.000
 14.238       0.000
 14.248       0.000
 14.258       0.000
 14.268       0.000
 14.278       0.000
 14.288       0.000
 14.298       0.000
 14.308       0.000
 14.318       0.000
 14.328       0.000
 14.338       0.000
 14.348       0.000
 14.358       0.000
 14.368       0.000
 14.378       0.000
 14.388       0.000
 14.398       0.000
 14.408       0.000
 14.418       0.000
 14.428       0.000
 14.438       0.000
 14.448       0.000
 14.458       0.000
 14.468       0.000
 14.478       0.000
 14.488       0.000
 14.498       0.000
 14.508       0.000
 14.518       0.000
 14.528       0.000
 14.538       0.000
 14.548       0.000
 14.558       0.000
 14.568       0.000
 14.578       0.000
 14.588       0.000
 14.598       0.000
 14.608       0.000
 14.618       0.000
 14.628       0.000
 14.638       0.000
 14.648       0.000
 14.658       0.000
 14.668       0.000
 14.678       0.000
 14.688       0.000
 14.698       0.000
 14.708       0.000
 14.718       0.000
 14.728       0.000
 14.739       0.000
 14.749       0.000
 14.759       0.000
 14.769       0.000
 14.779       0.000
 14.789       0.000
 14.799       0.000
 14.809       0.000
 14.819       0.000
 14.829       0.000
 14.839       0.000
 14.849       0.000
 14.859       0.000
 14.869       0.000
 14.879       0.000
 14.889       0.000
 14.899       0.000
 14.909       0.000
 14.919       0.000
 14.929       0.000
 14.939       0.000
 14.949       0.000
 14.959       0.000
 14.969       0.000
 14.979       0.000
 14.989       0.000
 14.999       0.000
 15.009       0.000
 15.019       0.000
 15.029       0.000
 15.039       0.000
 15.049       0.000
 15.059       0.000
 15.069       0.000
 15.079       0.000
 15.089       0.000
 15.099       0.000
 15.109       0.000
 15.119       0.000
 15.129       0.000
 15.139       0.000
 15.149       0.000
 15.159       0.000
 15.169       0.000
 15.179       0.000
 15.189       0.000
 15.199       0.000
 15.209       0.000
 15.219       0.000
 15.229       0.000
 15.239       0.000
 15.249       0.000
 15.259       0.000
 15.269       0.000
 15.279       0.000
 15.290       0.000
 15.300       0.000
 15.310       0.000
 15.320       0.000
 15.330       0.000
 15.340       0.000
 15.350       0.000
 15.360       0.000
 15.370       0.000
 15.380       0.000
 15.390       0.000
 15.400       0.000
 15.410       0.000
 15.420       0.000
 15.430       0.000
 15.440       0.000
 15.450       0.000
 15.460       0.000
 15.470       0.000
 15.480       0.000
 15.490       0.000
 15.500       0.000
 15.510       0.000
 15.520       0.000
 15.530       0.000
 15.540       0.000
 15.550       0.000
 15.560       0.000
 15.570       0.000
 15.580       0.000
 15.590       0.000
 15.600       0.000
 15.610       0.000
 15.620       0.000
 15.630       0.000
 15.640       0.000
 15.650       0.000
 15.660       0.000
 15.670       0.000
 15.680       0.000
 15.690       0.000
 15.700       0.000
 15.710       0.000
 15.720       0.000
 15.730       0.000
 15.740       0.000
 15.750       0.000
 15.760       0.000
 15.770       0.000
 15.780       0.000
 15.790       0.000
 15.800       0.000
 15.810       0.000
 15.820       0.000
 15.830       0.000
 15.840       0.000
 15.851       0.000
 15.861       0.000
 15.871       0.000
 15.881       0.000
 15.891       0.000
 15.901       0.000
 15.911       0.000
 15.921       0.000
 15.931       0.000
 15.941       0.000
 15.951       0.000
 15.961       0.000
 15.971       0.000
 15.981       0.000
 15.991       0.000
 16.001       0.000
 16.011       0.000
 16.021       0.000
 16.031       0.000
 16.041       0.000
 16.051       0.000
 16.061       0.000
 16.071       0.000
 16.081       0.000
 16.091       0.000
 16.101       0.000
 16.111       0.000
 16.121       0.000
 16.131       0.000
 16.141       0.000
 16.151       0.000
 16.161       0.000
 16.171       0.000
 16.181       0.000
 16.191       0.000
 16.201       0.000
 16.211       0.000
 16.221       0.000
 16.231       0.000
 16.241       0.000
 16.251       0.000
 16.261       0.000
 16.271       0.000
 16.281       0.000
 16.291       0.000
 16.301       0.000
 16.311       0.000
 16.321       0.000
 16.331       0.000
 16.341       0.000
 16.351       0.000
 16.361       0.000
 16.371       0.000
 16.381       0.000
 16.391       0.000
 16.402       0.000
 16.412       0.000
 16.422       0.000
 16.432       0.000
 16.442       0.000
 16.452       0.000
 16.462       0.000
 16.472       0.000
 16.482       0.000
 16.492       0.000
 16.502       0.000
 16.512       0.000
 16.522       0.000
 16.532       0.000
 16.542       0.000
 16.552       0.000
 16.562       0.000
 16.572       0.000
 16.582       0.000
 16.592       0.000
 16.602       0.000
 16.612       0.000
 16.622       0.000
 16.632       0.000
 16.642       0.000
 16.652       0.000
 16.662       0.000
 16.672       0.000
 16.682       0.000
 16.692       0.000
 16.702       0.000
 16.712       0.000
 16.722       0.000
 16.732       0.000
 16.742       0.000
 16.752       0.000
 16.762       0.000
 16.772       0.000
 16.782       0.000
 16.792       0.000
 16.802       0.000
 16.812       0.000
 16.822       0.000
 16.832       0.000
 16.842       0.000
 16.852       0.000
 16.862       0.000
 16.872       0.000
 16.882       0.000
 16.892       0.000
 16.902       0.000
 16.912       0.000
 16.922       0.000
 16.932       0.000
 16.942       0.000
 16.952       0.000
 16.963       0.000
 16.973       0.000
 16.983       0.000
 16.993       0.000
 17.003       0.000
 17.013       0.000
 17.023       0.000
 17.033       0.000
 17.043       0.000
 17.053       0.000
 17.063       0.000
 17.073       0.000
 17.083       0.000
 17.093       0.000
 17.103       0.000
 17.113       0.000
 17.123       0.000
 17.133       0.000
 17.143       0.000
 17.153       0.000
 17.163       0.000
 17.173       0.000
 17.183       0.000
 17.193       0.000
 17.203       0.000
 17.213       0.000
 17.223       0.000
 17.233       0.000
 17.243       0.000
 17.253       0.000
 17.263       0.000
 17.273       0.000
 17.283       0.000
 17.293       0.000
 17.303       0.000
 17.313       0.000
 17.323       0.000
 17.333       0.000
 17.343       0.000
 17.353       0.000
 17.363       0.000
 17.373       0.000
 17.383       0.000
 17.393       0.000
 17.403       0.000
 17.413       0.000
 17.423       0.000
 17.433       0.000
 17.443       0.000
 17.453       0.000
 17.463       0.000
 17.473       0.000
 17.483       0.000
 17.493       0.000
 17.503       0.000
 17.514       0.000
 17.524       0.000
 17.534       0.000
 17.544       0.000
 17.554       0.000
 17.564       0.000
 17.574       0.000
 17.584       0.000
 17.594       0.000
 17.604       0.000
 17.614       0.000
 17.624       0.000
 17.634       0.000
 17.644       0.000
 17.654       0.000
 17.664       0.000
 17.674       0.000
 17.684       0.000
 17.694       0.000
 17.704       0.000
 17.714       0.000
 17.724       0.000
 17.734       0.000
 17.744       0.000
 17.754       0.000
 17.764       0.000
 17.774       0.000
 17.784       0.000
 17.794       0.000
 17.804       0.000
 17.814       0.000
 17.824       0.000
 17.834       0.000
 17.844       0.000
 17.854       0.000
 17.864       0.000
 17.874       0.000
 17.884       0.000
 17.894       0.000
 17.904       0.000
 17.914       0.000
 17.924       0.000
 17.934       0.000
 17.944       0.000
 17.954       0.000
 17.964       0.000
 17.974       0.000
 17.984       0.000
 17.994       0.000
 18.004       0.000
 18.014       0.000
 18.024       0.000
 18.034       0.000
 18.044       0.000
 18.054       0.000
 18.064       0.000
 18.075       0.000
 18.085       0.000
 18.095       0.000
 18.105       0.000
 18.115       0.000
 18.125       0.000
 18.135       0.000
 18.145       0.000
 18.155       0.000
 18.165       0.000
 18.175       0.000
 18.185       0.000
 18.195       0.000
 18.205       0.000
 18.215       0.000
 18.225       0.000
 18.235       0.000
 18.245       0.000
 18.255       0.000
 18.265       0.000
 18.275       0.000
 18.285       0.000
 18.295       0.000
 18.305       0.000
 18.315       0.000
 18.325       0.000
 18.335       0.000
 18.345       0.000
 18.355       0.000
 18.365       0.000
 18.375       0.000
 18.385       0.000
 18.395       0.000
 18.405       0.000
 18.415       0.000
 18.425       0.000
 18.435       0.000
 18.445       0.000
 18.455       0.000
 18.465       0.000
 18.475       0.000
 18.485       0.000
 18.495       0.000
 18.505       0.000
 18.515       0.000
 18.525       0.000
 18.535       0.000
 18.545       0.000
 18.555       0.000
 18.565       0.000
 18.575       0.000
 18.585       0.000
 18.595       0.000
 18.605       0.000
 18.615       0.000
 18.625       0.000
 18.636       0.000
 18.646       0.000
 18.656       0.000
 18.666       0.000
 18.676       0.000
 18.686       0.000
 18.696       0.000
 18.706       0.000
 18.716       0.000
 18.726       0.000
 18.736       0.000
 18.746       0.000
 18.756       0.000
 18.766       0.000
 18.776       0.000
 18.786       0.000
 18.796       0.000
 18.806       0.000
 18.816       0.000
 18.826       0.000
 18.836       0.000
 18.846       0.000
 18.856       0.000
 18.866       0.000
 18.876       0.000
 18.886       0.000
 18.896       0.000
 18.906       0.000
 18.916       0.000
 18.926       0.000
 18.936       0.000
 18.946       0.000
 18.956       0.000
 18.966       0.000
 18.976       0.000
 18.986       0.000
 18.996       0.000
 19.006       0.000
 19.016       0.000
 19.026       0.000
 19.036       0.000
 19.046       0.000
 19.056       0.000
 19.066       0.000
 19.076       0.000
 19.086       0.000
 19.096       0.000
 19.106       0.000
 19.116       0.000
 19.126       0.000
 19.136       0.000
 19.146       0.000
 19.156       0.000
 19.166       0.000
 19.176       0.000
 19.187       0.000
 19.197       0.000
 19.207       0.000
 19.217       0.000
 19.227       0.000
 19.237       0.000
 19.247       0.000
 19.257       0.000
 19.267       0.000
 19.277       0.000
 19.287       0.000
 19.297       0.000
 19.307       0.000
 19.317       0.000
 19.327      58.502
 19.337      60.967
 19.347      63.590
 19.357      66.386
 19.367      69.370
 19.377      72.560
 19.387      75.975
 19.397      79.637
 19.407      83.569
 19.417      87.800
 19.427      92.359
 19.437      97.284
 19.447     102.612
 19.457     108.389
 19.467     114.668
 19.477     121.508
 19.487     128.976
 19.497     137.156
 19.507     146.135
 19.517     156.025
 19.527     166.953
 19.537     179.065
 19.547     192.541
 19.557     207.596
 19.567     224.480
 19.577     243.503
 19.587     265.046
 19.597     289.562
 19.607     317.629
 19.617     349.962
 19.627     387.476
 19.637     431.313
 19.647     482.980
 19.657     544.456
 19.667     618.337
 19.677     708.178
 19.687     818.898
 19.697     957.345
 19.707    1133.477
 19.717    1362.057
 19.727    1665.447
 19.737    2079.092
 19.748    2661.100
 19.758    3510.068
 19.768    4801.023
 19.778    6851.356
 19.788   15448.173
 19.798   20094.744
 19.808   23386.393
 19.818   24349.742
 19.828   22682.607
 19.838   18904.232
 19.848   14094.958
 19.858    6186.416
 19.868    4388.168
 19.878    3242.258
 19.888    2479.922
 19.898    1951.852
 19.908    1572.975
 19.918    1292.986
 19.928    1080.668
 19.938     916.070
 19.948     786.077
 19.958     681.689
 19.968     596.633
 19.978     526.469
