2theta /stopnie	natê¿enie/jednostki umowne
 10.000      65.000
 10.010      65.000
 10.020      65.000
 10.030      65.000
 10.040      65.000
 10.050      65.000
 10.060      65.000
 10.070      65.000
 10.080      65.000
 10.090      65.000
 10.100      65.000
 10.110      65.000
 10.120      65.000
 10.130      65.000
 10.140      65.000
 10.150      65.000
 10.160      65.000
 10.170      65.000
 10.180      65.000
 10.190      65.000
 10.200      65.000
 10.210      65.000
 10.220      65.000
 10.230      65.000
 10.240      65.000
 10.250      65.000
 10.260      65.000
 10.270      65.000
 10.281      65.000
 10.291      65.000
 10.301      65.000
 10.311      65.000
 10.321      65.000
 10.331      65.000
 10.341      65.000
 10.351      65.000
 10.361      65.000
 10.371      65.000
 10.381      65.000
 10.391      65.000
 10.401      65.000
 10.411      65.000
 10.421      65.000
 10.431      65.000
 10.441      65.000
 10.451      65.000
 10.461      65.000
 10.471      65.000
 10.481      65.000
 10.491      65.000
 10.501      65.000
 10.511      65.000
 10.521      65.000
 10.531      65.000
 10.541      65.000
 10.551      65.000
 10.561      65.000
 10.571      65.000
 10.581      65.000
 10.591      65.000
 10.601      65.000
 10.611      65.000
 10.621      65.000
 10.631      65.000
 10.641      65.000
 10.651      65.000
 10.661      65.000
 10.671      65.000
 10.681      65.000
 10.691      65.000
 10.701      65.000
 10.711      65.000
 10.721      65.000
 10.731      65.000
 10.741      65.000
 10.751      65.000
 10.761      65.000
 10.771      65.000
 10.781      65.000
 10.791      65.000
 10.801      65.000
 10.811      65.000
 10.821      65.000
 10.831      65.000
 10.842      65.000
 10.852      65.000
 10.862      65.000
 10.872      65.000
 10.882      65.000
 10.892      65.000
 10.902      65.000
 10.912      65.000
 10.922      65.000
 10.932      65.000
 10.942      65.000
 10.952      65.000
 10.962      65.000
 10.972      65.000
 10.982      65.000
 10.992      65.000
 11.002      65.000
 11.012      65.000
 11.022      65.000
 11.032      65.000
 11.042      65.000
 11.052      65.000
 11.062      65.000
 11.072      65.000
 11.082      65.000
 11.092      65.000
 11.102      65.000
 11.112      65.000
 11.122      65.000
 11.132      65.000
 11.142      65.000
 11.152      65.000
 11.162      65.000
 11.172      65.000
 11.182      65.000
 11.192      65.000
 11.202      65.000
 11.212      65.000
 11.222      65.000
 11.232      65.000
 11.242      65.000
 11.252      65.000
 11.262      65.000
 11.272      65.000
 11.282      65.000
 11.292      65.000
 11.302      65.000
 11.312      65.000
 11.322      65.000
 11.332      65.000
 11.342      65.000
 11.352      65.000
 11.362      65.000
 11.372      65.000
 11.382      65.000
 11.393      65.000
 11.403      65.000
 11.413      65.000
 11.423      65.000
 11.433      65.000
 11.443      65.000
 11.453      65.000
 11.463      65.000
 11.473      65.000
 11.483      65.000
 11.493      65.000
 11.503      65.000
 11.513      65.000
 11.523      65.000
 11.533      65.000
 11.543      65.000
 11.553      65.000
 11.563      65.000
 11.573      65.000
 11.583      65.000
 11.593      65.000
 11.603      65.000
 11.613      65.000
 11.623      65.000
 11.633      65.000
 11.643      65.000
 11.653      65.000
 11.663      65.000
 11.673      65.000
 11.683      65.000
 11.693      65.000
 11.703      65.000
 11.713      65.000
 11.723      65.000
 11.733      65.000
 11.743      65.000
 11.753      65.000
 11.763      65.000
 11.773      65.000
 11.783      65.000
 11.793      65.000
 11.803      65.000
 11.813      65.000
 11.823      65.000
 11.833      65.000
 11.843      65.000
 11.853      65.000
 11.863      65.000
 11.873      65.000
 11.883      65.000
 11.893      65.000
 11.903      65.000
 11.913      65.000
 11.923      65.000
 11.933      65.000
 11.943      65.000
 11.954      65.000
 11.964      65.000
 11.974      65.000
 11.984      65.000
 11.994      65.000
 12.004      65.000
 12.014      65.000
 12.024      65.000
 12.034      65.000
 12.044      65.000
 12.054      65.000
 12.064      65.000
 12.074      65.000
 12.084      65.000
 12.094      65.000
 12.104      65.000
 12.114      65.000
 12.124      65.000
 12.134      65.000
 12.144      65.000
 12.154      65.000
 12.164      65.000
 12.174      65.000
 12.184      65.000
 12.194      65.000
 12.204      65.000
 12.214      65.000
 12.224      65.000
 12.234      65.000
 12.244      65.000
 12.254      65.000
 12.264      65.000
 12.274      65.000
 12.284      65.000
 12.294      65.000
 12.304      65.000
 12.314      65.000
 12.324      65.000
 12.334      65.000
 12.344      65.000
 12.354      65.000
 12.364      65.000
 12.374      65.000
 12.384      65.000
 12.394      65.000
 12.404      65.000
 12.414      65.000
 12.424      65.000
 12.434      65.000
 12.444      65.000
 12.454      65.000
 12.464      65.000
 12.474      65.000
 12.484      65.000
 12.494      65.000
 12.505      65.000
 12.515      65.000
 12.525      65.000
 12.535      65.000
 12.545      65.000
 12.555      65.000
 12.565      65.000
 12.575      65.000
 12.585      65.000
 12.595      65.000
 12.605      65.000
 12.615      65.000
 12.625      65.000
 12.635      65.000
 12.645      65.000
 12.655      65.000
 12.665      65.000
 12.675      65.000
 12.685      65.000
 12.695      65.000
 12.705      65.000
 12.715      65.000
 12.725      65.000
 12.735      65.000
 12.745      65.000
 12.755      65.000
 12.765      65.000
 12.775      65.000
 12.785      65.000
 12.795      65.000
 12.805      65.000
 12.815      65.000
 12.825      65.000
 12.835      65.000
 12.845      65.000
 12.855      65.000
 12.865      65.000
 12.875      65.000
 12.885      65.000
 12.895      65.000
 12.905      65.000
 12.915      65.000
 12.925      65.000
 12.935      65.000
 12.945      65.000
 12.955      65.000
 12.965      65.000
 12.975      65.000
 12.985      65.000
 12.995      65.000
 13.005      65.000
 13.015      65.000
 13.025      65.000
 13.035      65.000
 13.045      65.000
 13.055      65.000
 13.066      65.000
 13.076      65.000
 13.086      65.000
 13.096      65.000
 13.106      65.000
 13.116      65.000
 13.126      65.000
 13.136      65.000
 13.146      65.000
 13.156      65.000
 13.166      65.000
 13.176      65.000
 13.186      65.000
 13.196      65.000
 13.206      65.000
 13.216      65.000
 13.226      65.000
 13.236      65.000
 13.246      65.000
 13.256      65.000
 13.266      65.000
 13.276      65.000
 13.286      65.000
 13.296      65.000
 13.306      65.000
 13.316      65.000
 13.326      65.000
 13.336      65.000
 13.346      65.000
 13.356      65.000
 13.366      65.000
 13.376      65.000
 13.386      65.000
 13.396      65.000
 13.406      65.000
 13.416      65.000
 13.426      65.000
 13.436      65.000
 13.446      65.000
 13.456      65.000
 13.466      65.000
 13.476      65.000
 13.486      65.000
 13.496      65.000
 13.506      65.000
 13.516      65.000
 13.526      65.000
 13.536      65.000
 13.546      65.000
 13.556      65.000
 13.566      65.000
 13.576      65.000
 13.586      65.000
 13.596      65.000
 13.606      65.000
 13.616      65.000
 13.627      65.000
 13.637      65.000
 13.647      65.000
 13.657      65.000
 13.667      65.000
 13.677      65.000
 13.687      65.000
 13.697      65.000
 13.707      65.000
 13.717      65.000
 13.727      65.000
 13.737      65.000
 13.747      65.000
 13.757      65.000
 13.767      65.000
 13.777      65.000
 13.787      65.000
 13.797      65.000
 13.807      65.000
 13.817      65.000
 13.827      65.000
 13.837      65.000
 13.847      65.000
 13.857      65.000
 13.867      65.000
 13.877      65.000
 13.887      65.000
 13.897      65.000
 13.907      65.000
 13.917      65.000
 13.927      65.000
 13.937      65.000
 13.947      65.000
 13.957      65.000
 13.967      65.000
 13.977      65.000
 13.987      65.000
 13.997      65.000
 14.007      65.000
 14.017      65.000
 14.027      65.000
 14.037      65.000
 14.047      65.000
 14.057      65.000
 14.067      65.000
 14.077      65.000
 14.087      65.000
 14.097      65.000
 14.107      65.000
 14.117      65.000
 14.127      65.000
 14.137      65.000
 14.147      65.000
 14.157      65.000
 14.167      65.000
 14.178      65.000
 14.188      65.000
 14.198      65.000
 14.208      65.000
 14.218      65.000
 14.228      65.000
 14.238      65.000
 14.248      65.000
 14.258      65.000
 14.268      65.000
 14.278      65.000
 14.288      65.000
 14.298      65.000
 14.308      65.000
 14.318      65.000
 14.328      65.000
 14.338      65.000
 14.348      65.000
 14.358      65.000
 14.368      65.000
 14.378      65.000
 14.388      65.000
 14.398      65.000
 14.408      65.000
 14.418      65.000
 14.428      65.000
 14.438      65.000
 14.448      65.000
 14.458      65.000
 14.468      65.000
 14.478      65.000
 14.488      65.000
 14.498      65.000
 14.508      65.000
 14.518      65.000
 14.528      65.000
 14.538      65.000
 14.548      65.000
 14.558      65.000
 14.568      65.000
 14.578      65.000
 14.588      65.000
 14.598      65.000
 14.608      65.000
 14.618      65.000
 14.628      65.000
 14.638      65.000
 14.648      65.000
 14.658      65.000
 14.668      65.000
 14.678      65.000
 14.688      65.000
 14.698      65.000
 14.708      65.000
 14.718      65.000
 14.728      65.000
 14.739      65.000
 14.749      65.000
 14.759      65.000
 14.769      65.000
 14.779      65.000
 14.789      65.000
 14.799      65.000
 14.809      65.000
 14.819      65.000
 14.829      65.000
 14.839      65.000
 14.849      65.000
 14.859      65.000
 14.869      65.000
 14.879      65.000
 14.889      65.000
 14.899      65.000
 14.909      65.000
 14.919      65.000
 14.929      65.000
 14.939      65.000
 14.949      65.000
 14.959      65.000
 14.969      65.000
 14.979      65.000
 14.989      65.000
 14.999      65.000
 15.009      65.000
 15.019      65.000
 15.029      65.000
 15.039      65.000
 15.049      65.000
 15.059      65.000
 15.069      65.000
 15.079      65.000
 15.089      65.000
 15.099      65.000
 15.109      65.000
 15.119      65.000
 15.129      65.000
 15.139      65.000
 15.149      65.000
 15.159      65.000
 15.169      65.000
 15.179      65.000
 15.189      65.000
 15.199      65.000
 15.209      65.000
 15.219      65.000
 15.229      65.000
 15.239      65.000
 15.249      65.000
 15.259      65.000
 15.269      65.000
 15.279      65.000
 15.290      65.000
 15.300      65.000
 15.310      65.000
 15.320      65.000
 15.330      65.000
 15.340      65.000
 15.350      65.000
 15.360      65.000
 15.370      65.000
 15.380      65.000
 15.390      65.000
 15.400      65.000
 15.410      65.000
 15.420      65.000
 15.430      65.000
 15.440      65.000
 15.450      65.000
 15.460      65.000
 15.470      65.000
 15.480      65.000
 15.490      65.000
 15.500      65.000
 15.510      65.000
 15.520      65.000
 15.530      65.000
 15.540      65.000
 15.550      65.000
 15.560      65.000
 15.570      65.000
 15.580      65.000
 15.590      65.000
 15.600      65.000
 15.610      65.000
 15.620      65.000
 15.630      65.000
 15.640      65.000
 15.650      65.000
 15.660      65.000
 15.670      65.000
 15.680      65.000
 15.690      65.000
 15.700      65.000
 15.710      65.000
 15.720      65.000
 15.730      65.000
 15.740      65.000
 15.750      65.000
 15.760      65.000
 15.770      65.000
 15.780      65.000
 15.790      65.000
 15.800      65.000
 15.810      65.000
 15.820      65.000
 15.830      65.000
 15.840      65.000
 15.851      65.000
 15.861      65.000
 15.871      65.000
 15.881      65.000
 15.891      65.000
 15.901      65.000
 15.911      65.000
 15.921      65.000
 15.931      65.000
 15.941      65.000
 15.951      65.000
 15.961      65.000
 15.971      65.000
 15.981      65.000
 15.991      65.000
 16.001      65.000
 16.011      65.000
 16.021      65.000
 16.031      65.000
 16.041      65.000
 16.051      65.000
 16.061      65.000
 16.071      65.000
 16.081      65.000
 16.091      65.000
 16.101      65.000
 16.111      65.000
 16.121      65.000
 16.131      65.000
 16.141      65.000
 16.151      65.000
 16.161      65.000
 16.171      65.000
 16.181      65.000
 16.191      65.000
 16.201      65.000
 16.211      65.000
 16.221      65.000
 16.231      65.000
 16.241      65.000
 16.251      65.000
 16.261      65.000
 16.271      65.000
 16.281      65.000
 16.291      65.000
 16.301      65.000
 16.311      65.000
 16.321      65.000
 16.331      65.000
 16.341      65.000
 16.351      65.000
 16.361      65.000
 16.371      65.000
 16.381      65.000
 16.391      65.000
 16.402      65.000
 16.412      65.000
 16.422      65.000
 16.432      65.000
 16.442      65.000
 16.452      65.000
 16.462      65.000
 16.472      65.000
 16.482      65.000
 16.492      65.000
 16.502      65.000
 16.512      65.000
 16.522      65.000
 16.532      65.000
 16.542      65.000
 16.552      65.000
 16.562      65.000
 16.572      65.000
 16.582      65.000
 16.592      65.000
 16.602      65.000
 16.612      65.000
 16.622      65.000
 16.632      65.000
 16.642      65.000
 16.652      65.000
 16.662      65.000
 16.672      65.000
 16.682      65.000
 16.692      65.000
 16.702      65.000
 16.712      65.000
 16.722      65.000
 16.732      65.000
 16.742      65.000
 16.752      65.000
 16.762      65.000
 16.772      65.000
 16.782      65.000
 16.792      65.000
 16.802      65.000
 16.812      65.000
 16.822      65.000
 16.832      65.000
 16.842      65.000
 16.852      65.000
 16.862      65.000
 16.872      65.000
 16.882      65.000
 16.892      65.000
 16.902      65.000
 16.912      65.000
 16.922      65.000
 16.932      65.000
 16.942      65.000
 16.952      65.000
 16.963      65.000
 16.973      65.000
 16.983      65.000
 16.993      65.000
 17.003      65.000
 17.013      65.000
 17.023      65.000
 17.033      65.000
 17.043      65.000
 17.053      65.000
 17.063      65.000
 17.073      65.000
 17.083      65.000
 17.093      65.000
 17.103      65.000
 17.113      65.000
 17.123      65.000
 17.133      65.000
 17.143      65.000
 17.153      65.000
 17.163      65.000
 17.173      65.000
 17.183      65.000
 17.193      65.000
 17.203      65.000
 17.213      65.000
 17.223      65.000
 17.233      65.000
 17.243      65.000
 17.253      65.000
 17.263      65.000
 17.273      65.000
 17.283      65.000
 17.293      65.000
 17.303      65.000
 17.313      65.000
 17.323      65.000
 17.333      65.000
 17.343      65.000
 17.353      65.000
 17.363      65.000
 17.373      65.000
 17.383      65.000
 17.393      65.000
 17.403      65.000
 17.413      65.000
 17.423      65.000
 17.433      65.000
 17.443      65.000
 17.453      65.000
 17.463      65.000
 17.473      65.000
 17.483      65.000
 17.493      65.000
 17.503      65.000
 17.514      65.000
 17.524      65.000
 17.534      65.000
 17.544      65.000
 17.554      65.000
 17.564      65.000
 17.574      65.000
 17.584      65.000
 17.594      65.000
 17.604      65.000
 17.614      65.000
 17.624      65.000
 17.634      65.000
 17.644      65.000
 17.654      65.000
 17.664      65.000
 17.674      65.000
 17.684      65.000
 17.694      65.000
 17.704      65.000
 17.714      65.000
 17.724      65.000
 17.734      65.000
 17.744      65.000
 17.754      65.000
 17.764      65.000
 17.774      65.000
 17.784      65.000
 17.794      65.000
 17.804      65.000
 17.814      65.000
 17.824      65.000
 17.834      65.000
 17.844      65.000
 17.854      65.000
 17.864      65.000
 17.874      65.000
 17.884      65.000
 17.894      65.000
 17.904      65.000
 17.914      65.000
 17.924      65.000
 17.934      65.000
 17.944      65.000
 17.954      65.000
 17.964      65.000
 17.974      65.000
 17.984      65.000
 17.994      65.000
 18.004      65.000
 18.014      65.000
 18.024      65.000
 18.034      65.000
 18.044      65.000
 18.054      65.000
 18.064      65.000
 18.075      65.000
 18.085      65.000
 18.095      65.000
 18.105      65.000
 18.115      65.000
 18.125      65.000
 18.135      65.000
 18.145      65.000
 18.155      65.000
 18.165      65.000
 18.175      65.000
 18.185      65.000
 18.195      65.000
 18.205      65.000
 18.215      65.000
 18.225      65.000
 18.235      65.000
 18.245      65.000
 18.255      65.000
 18.265      65.000
 18.275      65.000
 18.285      65.000
 18.295      65.000
 18.305      65.000
 18.315      65.000
 18.325      65.000
 18.335      65.000
 18.345      65.000
 18.355      65.000
 18.365      65.000
 18.375      65.000
 18.385      65.000
 18.395      65.000
 18.405      65.000
 18.415      65.000
 18.425      65.000
 18.435      65.000
 18.445      65.000
 18.455      65.000
 18.465      65.000
 18.475      65.000
 18.485      65.000
 18.495      65.000
 18.505      65.000
 18.515      65.000
 18.525      65.000
 18.535      65.000
 18.545      65.000
 18.555      65.000
 18.565      65.000
 18.575      65.000
 18.585      65.000
 18.595      65.000
 18.605      65.000
 18.615      65.000
 18.625      65.000
 18.636      65.000
 18.646      65.000
 18.656      65.000
 18.666      65.000
 18.676      65.000
 18.686      65.000
 18.696      65.000
 18.706      65.000
 18.716      65.000
 18.726      65.000
 18.736      65.000
 18.746      65.000
 18.756      65.000
 18.766      65.000
 18.776      65.000
 18.786      65.000
 18.796      65.000
 18.806      65.000
 18.816      65.000
 18.826      65.000
 18.836      65.000
 18.846      65.000
 18.856      65.000
 18.866      65.000
 18.876      65.000
 18.886      65.000
 18.896      65.000
 18.906      65.000
 18.916      65.000
 18.926      65.000
 18.936      65.000
 18.946      65.000
 18.956      65.000
 18.966      65.000
 18.976      65.000
 18.986      65.000
 18.996      65.000
 19.006      65.000
 19.016      65.000
 19.026      65.000
 19.036      65.000
 19.046      65.000
 19.056      65.000
 19.066      65.000
 19.076      65.000
 19.086      65.000
 19.096      65.000
 19.106      65.000
 19.116      65.000
 19.126      65.000
 19.136      65.000
 19.146      65.000
 19.156      65.000
 19.166      65.000
 19.176      65.000
 19.187      65.000
 19.197      65.000
 19.207      65.000
 19.217      65.000
 19.227      65.000
 19.237      65.000
 19.247      65.000
 19.257      65.000
 19.267      65.000
 19.277      65.000
 19.287      65.000
 19.297      65.000
 19.307      65.000
 19.317      65.000
 19.327      65.000
 19.337      65.000
 19.347      65.000
 19.357      65.000
 19.367      65.000
 19.377      65.000
 19.387      65.000
 19.397      65.000
 19.407      65.000
 19.417      65.000
 19.427      65.000
 19.437      65.000
 19.447      65.000
 19.457      65.000
 19.467      65.000
 19.477      65.000
 19.487      65.000
 19.497      65.000
 19.507      65.000
 19.517      65.000
 19.527      65.000
 19.537      65.000
 19.547      65.000
 19.557      65.000
 19.567      65.000
 19.577      65.000
 19.587      65.000
 19.597      65.000
 19.607      65.000
 19.617      65.000
 19.627      65.000
 19.637      65.000
 19.647      65.000
 19.657      65.000
 19.667      65.000
 19.677      65.000
 19.687      65.000
 19.697      65.000
 19.707      65.000
 19.717      65.000
 19.727      65.000
 19.737      65.000
 19.748      65.000
 19.758      65.000
 19.768      65.000
 19.778      65.000
 19.788      65.000
 19.798      65.000
 19.808      65.000
 19.818      65.000
 19.828      65.000
 19.838      65.000
 19.848      65.000
 19.858      65.000
 19.868      65.000
 19.878      65.000
 19.888      65.000
 19.898      65.000
 19.908      65.000
 19.918      65.000
 19.928      65.000
 19.938      65.000
 19.948      65.000
 19.958      65.000
 19.968      65.000
 19.978      65.000
