t /s	T /°C	HF /mw
17.888	74.018	-5.545
17.896	74.105	-5.545
17.904	74.187	-5.546
17.913	74.270	-5.546
17.921	74.352	-5.547
17.929	74.435	-5.548
17.938	74.519	-5.549
17.946	74.601	-5.549
17.954	74.687	-5.549
17.963	74.768	-5.550
17.971	74.851	-5.550
17.979	74.940	-5.550
17.988	75.025	-5.550
17.996	75.108	-5.550
18.004	75.190	-5.550
18.013	75.266	-5.550
18.021	75.353	-5.550
18.029	75.434	-5.550
18.038	75.523	-5.550
18.046	75.607	-5.551
18.054	75.690	-5.551
18.063	75.770	-5.551
18.071	75.854	-5.551
18.079	75.936	-5.551
18.088	76.018	-5.551
18.096	76.103	-5.552
18.104	76.185	-5.552
18.113	76.270	-5.552
18.121	76.355	-5.552
18.129	76.438	-5.552
18.138	76.525	-5.552
18.146	76.606	-5.552
18.154	76.691	-5.553
18.163	76.770	-5.553
18.171	76.851	-5.553
18.179	76.939	-5.553
18.188	77.019	-5.553
18.196	77.105	-5.553
18.204	77.190	-5.553
18.213	77.273	-5.553
18.221	77.354	-5.553
18.229	77.435	-5.553
18.238	77.521	-5.553
18.246	77.608	-5.553
18.254	77.693	-5.553
18.263	77.777	-5.553
18.271	77.857	-5.552
18.279	77.940	-5.552
18.288	78.022	-5.552
18.296	78.106	-5.552
18.304	78.187	-5.553
18.313	78.275	-5.553
18.321	78.356	-5.553
18.329	78.440	-5.553
18.338	78.523	-5.553
18.346	78.606	-5.553
18.354	78.689	-5.554
18.363	78.774	-5.554
18.371	78.855	-5.554
18.379	78.945	-5.554
18.388	79.022	-5.554
18.396	79.108	-5.554
18.404	79.191	-5.554
18.413	79.276	-5.553
18.421	79.363	-5.553
18.429	79.442	-5.553
18.438	79.525	-5.553
18.446	79.610	-5.553
18.454	79.695	-5.553
18.463	79.778	-5.554
18.471	79.860	-5.554
18.479	79.945	-5.554
18.488	80.027	-5.554
18.496	80.114	-5.554
18.504	80.195	-5.554
18.513	80.282	-5.554
18.521	80.356	-5.554
18.529	80.442	-5.554
18.538	80.523	-5.554
18.546	80.610	-5.555
18.554	80.694	-5.555
18.563	80.780	-5.555
18.571	80.857	-5.555
18.579	80.944	-5.555
18.588	81.026	-5.555
18.596	81.111	-5.555
18.604	81.195	-5.556
18.613	81.279	-5.556
18.621	81.361	-5.556
18.629	81.446	-5.556
18.638	81.529	-5.556
18.646	81.612	-5.556
18.654	81.694	-5.556
18.663	81.779	-5.556
18.671	81.863	-5.556
18.679	81.950	-5.556
18.688	82.032	-5.556
18.696	82.113	-5.556
18.704	82.201	-5.556
18.713	82.286	-5.556
18.721	82.363	-5.556
18.729	82.453	-5.556
18.738	82.535	-5.557
18.746	82.615	-5.557
18.754	82.697	-5.557
18.763	82.781	-5.557
18.771	82.866	-5.558
18.779	82.952	-5.558
18.788	83.033	-5.559
18.796	83.121	-5.559
18.804	83.206	-5.560
18.813	83.285	-5.560
18.821	83.366	-5.560
18.829	83.453	-5.560
18.838	83.536	-5.560
18.846	83.622	-5.560
18.854	83.702	-5.561
18.863	83.786	-5.561
18.871	83.866	-5.561
18.879	83.952	-5.561
18.888	84.035	-5.562
18.896	84.122	-5.562
18.904	84.203	-5.562
18.913	84.290	-5.563
18.921	84.368	-5.563
18.929	84.458	-5.563
18.938	84.537	-5.564
18.946	84.625	-5.564
18.954	84.707	-5.564
18.963	84.791	-5.564
18.971	84.872	-5.565
18.979	84.958	-5.565
18.988	85.043	-5.565
18.996	85.123	-5.565
19.004	85.206	-5.565
19.013	85.294	-5.565
19.021	85.378	-5.565
19.029	85.458	-5.566
19.038	85.540	-5.566
19.046	85.628	-5.566
19.054	85.707	-5.566
19.063	85.792	-5.567
19.071	85.874	-5.567
19.079	85.960	-5.568
19.088	86.043	-5.568
19.096	86.130	-5.569
19.104	86.213	-5.570
19.113	86.298	-5.570
19.121	86.381	-5.571
19.129	86.465	-5.571
19.138	86.547	-5.572
19.146	86.626	-5.572
19.154	86.716	-5.572
19.163	86.794	-5.572
19.171	86.877	-5.573
19.179	86.960	-5.573
19.188	87.042	-5.573
19.196	87.127	-5.573
19.204	87.211	-5.573
19.213	87.296	-5.573
19.221	87.378	-5.574
19.229	87.462	-5.574
19.238	87.546	-5.574
19.246	87.628	-5.574
19.254	87.714	-5.574
19.263	87.798	-5.574
19.271	87.881	-5.575
19.279	87.962	-5.575
19.288	88.043	-5.575
19.296	88.129	-5.575
19.304	88.211	-5.576
19.313	88.294	-5.576
19.321	88.378	-5.576
19.329	88.460	-5.576
19.338	88.545	-5.577
19.346	88.629	-5.577
19.354	88.718	-5.577
19.363	88.800	-5.578
19.371	88.879	-5.578
19.379	88.965	-5.579
19.388	89.045	-5.579
19.396	89.130	-5.580
19.404	89.211	-5.580
19.413	89.297	-5.581
19.421	89.380	-5.582
19.429	89.465	-5.582
19.438	89.547	-5.582
19.446	89.629	-5.583
19.454	89.713	-5.583
19.463	89.794	-5.583
19.471	89.880	-5.583
19.479	89.962	-5.583
19.488	90.048	-5.584
19.496	90.131	-5.584
19.504	90.218	-5.584
19.513	90.299	-5.585
19.521	90.381	-5.585
19.529	90.462	-5.585
19.538	90.550	-5.586
19.546	90.635	-5.586
19.554	90.715	-5.587
19.563	90.798	-5.587
19.571	90.884	-5.587
19.579	90.965	-5.587
19.588	91.050	-5.587
19.596	91.135	-5.587
19.604	91.219	-5.587
19.613	91.302	-5.587
19.621	91.382	-5.588
19.629	91.468	-5.588
19.638	91.553	-5.589
19.646	91.632	-5.589
19.654	91.719	-5.590
19.663	91.806	-5.590
19.671	91.890	-5.591
19.679	91.974	-5.592
19.688	92.052	-5.592
19.696	92.128	-5.593
19.704	92.211	-5.593
19.713	92.300	-5.593
19.721	92.387	-5.593
19.729	92.468	-5.594
19.738	92.553	-5.594
19.746	92.638	-5.594
19.754	92.720	-5.594
19.763	92.804	-5.594
19.771	92.887	-5.594
19.779	92.972	-5.595
19.788	93.052	-5.595
19.796	93.135	-5.595
19.804	93.222	-5.595
19.813	93.305	-5.595
19.821	93.388	-5.595
19.829	93.474	-5.595
19.838	93.556	-5.595
19.846	93.637	-5.595
19.854	93.716	-5.596
19.863	93.803	-5.596
19.871	93.885	-5.596
19.879	93.970	-5.597
19.888	94.051	-5.597
19.896	94.137	-5.597
19.904	94.223	-5.597
19.913	94.308	-5.598
19.921	94.391	-5.598
19.929	94.473	-5.599
19.938	94.557	-5.599
19.946	94.640	-5.599
19.954	94.722	-5.599
19.963	94.805	-5.600
19.971	94.886	-5.600
19.979	94.970	-5.601
19.988	95.059	-5.601
19.996	95.103	-5.601
20.004	95.183	-5.602
20.013	95.267	-5.602
20.021	95.350	-5.602
20.029	95.433	-5.603
20.038	95.541	-5.603
20.046	95.642	-5.602
20.054	95.726	-5.603
20.063	95.809	-5.602
20.071	95.893	-5.602
20.079	95.974	-5.602
20.088	96.061	-5.602
20.096	96.143	-5.601
20.104	96.228	-5.601
20.113	96.308	-5.601
20.121	96.393	-5.601
20.129	96.474	-5.601
20.138	96.560	-5.602
20.146	96.643	-5.602
20.154	96.724	-5.602
20.163	96.806	-5.603
20.171	96.891	-5.603
20.179	96.975	-5.604
20.188	97.056	-5.604
20.196	97.144	-5.605
20.204	97.227	-5.605
20.213	97.311	-5.605
20.221	97.395	-5.606
20.229	97.478	-5.606
20.238	97.560	-5.606
20.246	97.642	-5.606
20.254	97.722	-5.607
20.263	97.809	-5.607
20.271	97.893	-5.607
20.279	97.977	-5.607
20.288	98.058	-5.607
20.296	98.147	-5.607
20.304	98.229	-5.608
20.313	98.312	-5.608
20.321	98.395	-5.608
20.329	98.476	-5.608
20.338	98.557	-5.608
20.346	98.641	-5.608
20.354	98.728	-5.609
20.363	98.808	-5.609
20.371	98.891	-5.609
20.379	98.975	-5.609
20.388	99.060	-5.609
20.396	99.141	-5.609
20.404	99.226	-5.610
20.413	99.308	-5.610
20.421	99.391	-5.611
20.429	99.474	-5.611
20.438	99.559	-5.611
20.446	99.644	-5.611
20.454	99.727	-5.611
20.463	99.810	-5.612
20.471	99.894	-5.612
20.479	99.979	-5.612
20.488	100.057	-5.613
20.496	100.145	-5.613
20.504	100.225	-5.613
20.513	100.310	-5.612
20.521	100.394	-5.613
20.529	100.476	-5.613
20.538	100.560	-5.613
20.546	100.643	-5.614
20.554	100.722	-5.614
20.563	100.806	-5.614
20.571	100.888	-5.614
20.579	100.974	-5.614
20.588	101.059	-5.615
20.596	101.139	-5.615
20.604	101.221	-5.615
20.613	101.308	-5.615
20.621	101.389	-5.615
20.629	101.474	-5.616
20.638	101.553	-5.616
20.646	101.642	-5.616
20.654	101.723	-5.617
20.663	101.809	-5.617
20.671	101.895	-5.617
20.679	101.977	-5.617
20.688	102.057	-5.617
20.696	102.139	-5.618
20.704	102.223	-5.618
20.713	102.305	-5.618
20.721	102.392	-5.618
20.729	102.473	-5.619
20.738	102.557	-5.619
20.746	102.642	-5.619
20.754	102.728	-5.619
20.763	102.809	-5.620
20.771	102.895	-5.620
20.779	102.976	-5.621
20.788	103.060	-5.621
20.796	103.143	-5.621
20.804	103.226	-5.621
20.813	103.315	-5.621
20.821	103.393	-5.621
20.829	103.479	-5.621
20.838	103.559	-5.622
20.846	103.644	-5.622
20.854	103.714	-5.622
20.863	103.808	-5.622
20.871	103.888	-5.623
20.879	103.975	-5.624
20.888	104.062	-5.625
20.896	104.139	-5.626
20.904	104.221	-5.627
20.913	104.305	-5.628
20.921	104.389	-5.629
20.929	104.475	-5.629
20.938	104.557	-5.630
20.946	104.640	-5.630
20.954	104.724	-5.630
20.963	104.811	-5.630
20.971	104.889	-5.630
20.979	104.979	-5.630
20.988	105.056	-5.630
20.996	105.145	-5.630
21.004	105.229	-5.630
21.013	105.310	-5.630
21.021	105.392	-5.630
21.029	105.475	-5.631
21.038	105.560	-5.631
21.046	105.640	-5.631
21.054	105.722	-5.632
21.063	105.813	-5.632
21.071	105.893	-5.632
21.079	105.977	-5.633
21.088	106.062	-5.633
21.096	106.144	-5.634
21.104	106.226	-5.634
21.113	106.308	-5.634
21.121	106.391	-5.635
21.129	106.477	-5.635
21.138	106.557	-5.635
21.146	106.640	-5.636
21.154	106.727	-5.636
21.163	106.808	-5.637
21.171	106.891	-5.637
21.179	106.969	-5.638
21.188	107.060	-5.638
21.196	107.143	-5.638
21.204	107.226	-5.637
21.213	107.310	-5.637
21.221	107.394	-5.636
21.229	107.478	-5.636
21.238	107.563	-5.635
21.246	107.644	-5.634
21.254	107.728	-5.634
21.263	107.810	-5.633
21.271	107.892	-5.632
21.279	107.976	-5.632
21.288	108.057	-5.633
21.296	108.150	-5.633
21.304	108.228	-5.633
21.313	108.313	-5.634
21.321	108.394	-5.634
21.329	108.477	-5.634
21.338	108.563	-5.633
21.346	108.644	-5.634
21.354	108.729	-5.634
21.363	108.806	-5.634
21.371	108.893	-5.634
21.379	108.976	-5.635
21.388	109.058	-5.635
21.396	109.141	-5.635
21.404	109.224	-5.635
21.413	109.308	-5.636
21.421	109.392	-5.636
21.429	109.478	-5.636
21.438	109.560	-5.636
21.446	109.645	-5.636
21.454	109.726	-5.637
21.463	109.805	-5.637
21.471	109.891	-5.637
21.479	109.978	-5.637
21.488	110.056	-5.638
21.496	110.146	-5.638
21.504	110.226	-5.638
21.513	110.311	-5.638
21.521	110.402	-5.639
21.529	110.475	-5.639
21.538	110.562	-5.639
21.546	110.651	-5.639
21.554	110.723	-5.639
21.563	110.814	-5.639
21.571	110.897	-5.639
21.579	110.977	-5.639
21.588	111.062	-5.640
21.596	111.142	-5.640
21.604	111.229	-5.640
21.613	111.313	-5.640
21.621	111.398	-5.640
21.629	111.477	-5.640
21.638	111.560	-5.641
21.646	111.640	-5.641
21.654	111.723	-5.641
21.663	111.811	-5.641
21.671	111.894	-5.641
21.679	111.973	-5.641
21.688	112.059	-5.641
21.696	112.144	-5.641
21.704	112.227	-5.642
21.713	112.310	-5.642
21.721	112.390	-5.642
21.729	112.478	-5.642
21.738	112.564	-5.642
21.746	112.642	-5.642
21.754	112.724	-5.642
21.763	112.809	-5.642
21.771	112.893	-5.642
21.779	112.976	-5.642
21.788	113.060	-5.642
21.796	113.141	-5.642
21.804	113.223	-5.642
21.813	113.310	-5.643
21.821	113.389	-5.643
21.829	113.474	-5.643
21.838	113.556	-5.643
21.846	113.640	-5.643
21.854	113.720	-5.643
21.863	113.805	-5.643
21.871	113.890	-5.643
21.879	113.972	-5.643
21.888	114.058	-5.644
21.896	114.140	-5.644
21.904	114.222	-5.644
21.913	114.306	-5.644
21.921	114.392	-5.644
21.929	114.473	-5.644
21.938	114.559	-5.644
21.946	114.639	-5.644
21.954	114.724	-5.643
21.963	114.808	-5.643
21.971	114.892	-5.643
21.979	114.975	-5.643
21.988	115.060	-5.643
21.996	115.145	-5.643
22.004	115.226	-5.643
22.013	115.314	-5.643
22.021	115.392	-5.643
22.029	115.477	-5.643
22.038	115.557	-5.643
22.046	115.642	-5.643
22.054	115.723	-5.643
22.063	115.807	-5.643
22.071	115.888	-5.642
22.079	115.971	-5.643
22.088	116.056	-5.642
22.096	116.142	-5.642
22.104	116.226	-5.642
22.113	116.314	-5.642
22.121	116.394	-5.642
22.129	116.475	-5.642
22.138	116.561	-5.642
22.146	116.643	-5.642
22.154	116.729	-5.642
22.163	116.812	-5.642
22.171	116.898	-5.642
22.179	116.976	-5.642
22.188	117.061	-5.642
22.196	117.144	-5.643
22.204	117.230	-5.643
22.213	117.314	-5.643
22.221	117.395	-5.643
22.229	117.477	-5.643
22.238	117.566	-5.643
22.246	117.647	-5.643
22.254	117.727	-5.644
22.263	117.812	-5.644
22.271	117.895	-5.644
22.279	117.976	-5.644
22.288	118.065	-5.644
22.296	118.144	-5.644
22.304	118.231	-5.643
22.313	118.315	-5.644
22.321	118.393	-5.644
22.329	118.477	-5.645
22.338	118.563	-5.645
22.346	118.646	-5.645
22.354	118.729	-5.645
22.363	118.813	-5.644
22.371	118.894	-5.644
22.379	118.978	-5.645
22.388	119.066	-5.644
22.396	119.149	-5.644
22.404	119.230	-5.644
22.413	119.314	-5.644
22.421	119.396	-5.644
22.429	119.479	-5.644
22.438	119.564	-5.644
22.446	119.643	-5.644
22.454	119.731	-5.643
22.463	119.813	-5.643
22.471	119.895	-5.643
22.479	119.977	-5.643
22.488	120.066	-5.643
22.496	120.149	-5.643
22.504	120.226	-5.643
22.513	120.313	-5.643
22.521	120.395	-5.643
22.529	120.478	-5.643
22.538	120.559	-5.643
22.546	120.643	-5.644
22.554	120.727	-5.644
22.563	120.809	-5.644
22.571	120.893	-5.644
22.579	120.981	-5.643
22.588	121.066	-5.643
22.596	121.147	-5.643
22.604	121.227	-5.643
22.613	121.317	-5.643
22.621	121.400	-5.643
22.629	121.483	-5.642
22.638	121.566	-5.642
22.646	121.651	-5.642
22.654	121.733	-5.642
22.663	121.816	-5.642
22.671	121.900	-5.642
22.679	121.985	-5.642
22.688	122.067	-5.642
22.696	122.150	-5.643
22.704	122.233	-5.643
22.713	122.319	-5.643
22.721	122.400	-5.643
22.729	122.481	-5.643
22.738	122.565	-5.643
22.746	122.652	-5.643
22.754	122.735	-5.643
22.763	122.822	-5.643
22.771	122.900	-5.643
22.779	122.983	-5.642
22.788	123.065	-5.642
22.796	123.149	-5.642
22.804	123.235	-5.642
22.813	123.315	-5.642
22.821	123.400	-5.642
22.829	123.484	-5.641
22.838	123.565	-5.641
22.846	123.647	-5.641
22.854	123.731	-5.641
22.863	123.818	-5.641
22.871	123.900	-5.641
22.879	123.982	-5.641
22.888	124.062	-5.641
22.896	124.145	-5.641
22.904	124.232	-5.640
22.913	124.315	-5.641
22.921	124.398	-5.641
22.929	124.480	-5.640
22.938	124.565	-5.640
22.946	124.649	-5.639
22.954	124.735	-5.639
22.963	124.817	-5.638
22.971	124.901	-5.638
22.979	124.983	-5.637
22.988	125.066	-5.637
22.996	125.152	-5.636
23.004	125.236	-5.636
23.013	125.319	-5.635
23.021	125.405	-5.635
23.029	125.484	-5.634
23.038	125.570	-5.634
23.046	125.652	-5.634
23.054	125.733	-5.634
23.063	125.818	-5.634
23.071	125.902	-5.634
23.079	125.991	-5.633
23.088	126.069	-5.633
23.096	126.148	-5.633
23.104	126.232	-5.633
23.113	126.317	-5.633
23.121	126.401	-5.632
23.129	126.487	-5.632
23.138	126.571	-5.631
23.146	126.652	-5.631
23.154	126.733	-5.630
23.163	126.819	-5.630
23.171	126.903	-5.630
23.179	126.987	-5.630
23.188	127.069	-5.629
23.196	127.147	-5.629
23.204	127.236	-5.628
23.213	127.318	-5.627
23.221	127.401	-5.627
23.229	127.483	-5.626
23.238	127.566	-5.625
23.246	127.652	-5.624
23.254	127.734	-5.623
23.263	127.819	-5.623
23.271	127.901	-5.622
23.279	127.987	-5.621
23.288	128.071	-5.621
23.296	128.158	-5.621
23.304	128.239	-5.621
23.313	128.326	-5.621
23.321	128.409	-5.620
23.329	128.490	-5.620
23.338	128.576	-5.620
23.346	128.660	-5.619
23.354	128.740	-5.619
23.363	128.822	-5.619
23.371	128.906	-5.618
23.379	128.991	-5.618
23.388	129.073	-5.617
23.396	129.157	-5.617
23.404	129.243	-5.616
23.413	129.323	-5.616
23.421	129.405	-5.616
23.429	129.490	-5.616
23.438	129.576	-5.616
23.446	129.656	-5.615
23.454	129.738	-5.615
23.463	129.823	-5.614
23.471	129.907	-5.614
23.479	129.995	-5.614
23.488	130.079	-5.614
23.496	130.160	-5.613
23.504	130.245	-5.613
23.513	130.327	-5.613
23.521	130.409	-5.612
23.529	130.493	-5.612
23.538	130.573	-5.612
23.546	130.661	-5.611
23.554	130.746	-5.611
23.563	130.828	-5.610
23.571	130.911	-5.610
23.579	130.993	-5.609
23.588	131.074	-5.609
23.596	131.157	-5.608
23.604	131.240	-5.608
23.613	131.322	-5.608
23.621	131.404	-5.608
23.629	131.493	-5.607
23.638	131.575	-5.608
23.646	131.663	-5.608
23.654	131.741	-5.608
23.663	131.826	-5.608
23.671	131.909	-5.608
23.679	131.994	-5.608
23.688	132.075	-5.608
23.696	132.161	-5.608
23.704	132.245	-5.608
23.713	132.329	-5.608
23.721	132.413	-5.608
23.729	132.495	-5.608
23.738	132.573	-5.608
23.746	132.658	-5.608
23.754	132.743	-5.608
23.763	132.827	-5.608
23.771	132.907	-5.608
23.779	132.991	-5.608
23.788	133.077	-5.608
23.796	133.160	-5.608
23.804	133.246	-5.607
23.813	133.326	-5.607
23.821	133.411	-5.607
23.829	133.498	-5.608
23.838	133.578	-5.607
23.846	133.663	-5.607
23.854	133.750	-5.607
23.863	133.828	-5.607
23.871	133.913	-5.607
23.879	133.996	-5.607
23.888	134.079	-5.608
23.896	134.157	-5.608
23.904	134.244	-5.607
23.913	134.327	-5.607
23.921	134.409	-5.607
23.929	134.497	-5.606
23.938	134.574	-5.606
23.946	134.659	-5.606
23.954	134.746	-5.606
23.963	134.828	-5.605
23.971	134.913	-5.605
23.979	134.995	-5.605
23.988	135.080	-5.604
23.996	135.159	-5.604
24.004	135.244	-5.604
24.013	135.328	-5.604
24.021	135.411	-5.603
24.029	135.495	-5.603
24.038	135.576	-5.603
24.046	135.662	-5.603
24.054	135.747	-5.603
24.063	135.829	-5.602
24.071	135.910	-5.602
24.079	135.996	-5.602
24.088	136.079	-5.602
24.096	136.163	-5.603
24.104	136.247	-5.603
24.113	136.329	-5.603
24.121	136.413	-5.603
24.129	136.495	-5.603
24.138	136.576	-5.603
24.146	136.664	-5.603
24.154	136.745	-5.603
24.163	136.827	-5.603
24.171	136.912	-5.602
24.179	136.993	-5.602
24.188	137.077	-5.602
24.196	137.159	-5.602
24.204	137.241	-5.602
24.213	137.327	-5.602
24.221	137.409	-5.603
24.229	137.495	-5.603
24.238	137.577	-5.604
24.246	137.663	-5.604
24.254	137.745	-5.604
24.263	137.826	-5.605
24.271	137.913	-5.605
24.279	137.999	-5.605
24.288	138.080	-5.606
24.296	138.161	-5.606
24.304	138.250	-5.606
24.313	138.331	-5.607
24.321	138.416	-5.607
24.329	138.494	-5.607
24.338	138.579	-5.608
24.346	138.662	-5.608
24.354	138.750	-5.608
24.363	138.830	-5.609
24.371	138.916	-5.609
24.379	139.000	-5.609
24.388	139.080	-5.610
24.396	139.164	-5.610
24.404	139.247	-5.611
24.413	139.330	-5.611
24.421	139.413	-5.612
24.429	139.498	-5.613
24.438	139.581	-5.613
24.446	139.662	-5.614
24.454	139.749	-5.615
24.463	139.830	-5.615
24.471	139.914	-5.616
24.479	139.993	-5.617
24.488	140.081	-5.617
24.496	140.164	-5.617
24.504	140.248	-5.617
24.513	140.329	-5.618
24.521	140.414	-5.618
24.529	140.496	-5.619
24.538	140.580	-5.619
24.546	140.663	-5.620
24.554	140.748	-5.621
24.563	140.826	-5.621
24.571	140.911	-5.621
24.579	140.997	-5.622
24.588	141.082	-5.622
24.596	141.166	-5.623
24.604	141.243	-5.623
24.613	141.332	-5.623
24.621	141.413	-5.624
24.629	141.496	-5.624
24.638	141.581	-5.624
24.646	141.666	-5.624
24.654	141.748	-5.625
24.663	141.831	-5.626
24.671	141.916	-5.626
24.679	141.998	-5.627
24.688	142.080	-5.627
24.696	142.160	-5.628
24.704	142.247	-5.628
24.713	142.331	-5.629
24.721	142.419	-5.629
24.729	142.499	-5.630
24.738	142.582	-5.630
24.746	142.666	-5.631
24.754	142.751	-5.631
24.763	142.834	-5.632
24.771	142.921	-5.632
24.779	143.004	-5.633
24.788	143.087	-5.633
24.796	143.168	-5.634
24.804	143.251	-5.634
24.813	143.334	-5.634
24.821	143.416	-5.635
24.829	143.503	-5.635
24.838	143.584	-5.636
24.846	143.668	-5.637
24.854	143.746	-5.637
24.863	143.833	-5.638
24.871	143.916	-5.637
24.879	144.003	-5.638
24.888	144.082	-5.638
24.896	144.165	-5.639
24.904	144.249	-5.639
24.913	144.332	-5.640
24.921	144.416	-5.640
24.929	144.500	-5.640
24.938	144.585	-5.640
24.946	144.665	-5.640
24.954	144.751	-5.641
24.963	144.827	-5.641
24.971	144.912	-5.641
24.979	145.001	-5.641
24.988	145.083	-5.641
24.996	145.168	-5.641
25.004	145.250	-5.641
25.013	145.332	-5.641
25.021	145.414	-5.642
25.029	145.500	-5.642
25.038	145.585	-5.642
25.046	145.666	-5.642
25.054	145.752	-5.643
25.063	145.829	-5.644
25.071	145.915	-5.644
25.079	146.001	-5.644
25.088	146.083	-5.645
25.096	146.165	-5.645
25.104	146.254	-5.646
25.113	146.337	-5.646
25.121	146.420	-5.646
25.129	146.498	-5.646
25.138	146.584	-5.646
25.146	146.667	-5.646
25.154	146.747	-5.646
25.163	146.832	-5.646
25.171	146.917	-5.646
25.179	147.000	-5.646
25.188	147.085	-5.645
25.196	147.169	-5.645
25.204	147.247	-5.646
25.213	147.338	-5.646
25.221	147.421	-5.646
25.229	147.505	-5.646
25.238	147.588	-5.646
25.246	147.670	-5.646
25.254	147.752	-5.646
25.263	147.834	-5.647
25.271	147.919	-5.647
25.279	148.005	-5.647
25.288	148.085	-5.647
25.296	148.165	-5.647
25.304	148.251	-5.648
25.313	148.333	-5.648
25.321	148.419	-5.648
25.329	148.498	-5.648
25.338	148.583	-5.648
25.346	148.666	-5.648
25.354	148.753	-5.648
25.363	148.830	-5.648
25.371	148.916	-5.648
25.379	149.001	-5.648
25.388	149.084	-5.649
25.396	149.172	-5.649
25.404	149.255	-5.649
25.413	149.330	-5.650
25.421	149.415	-5.650
25.429	149.501	-5.650
25.438	149.588	-5.650
25.446	149.669	-5.651
25.454	149.748	-5.651
25.463	149.837	-5.651
25.471	149.923	-5.651
25.479	150.001	-5.651
25.488	150.088	-5.651
25.496	150.166	-5.651
25.504	150.253	-5.651
25.513	150.337	-5.651
25.521	150.417	-5.650
25.529	150.500	-5.650
25.538	150.589	-5.650
25.546	150.672	-5.649
25.554	150.756	-5.650
25.563	150.839	-5.650
