2theta /stopnie	natê¿enie/jednostki umowne
 10.000      52.000
 10.010      52.000
 10.020      52.000
 10.030      52.000
 10.040      52.000
 10.050      52.000
 10.060      52.000
 10.070      52.000
 10.080      52.000
 10.090      52.000
 10.100      52.000
 10.110      52.000
 10.120      52.000
 10.130      52.000
 10.140      52.000
 10.150      52.000
 10.160      52.000
 10.170      52.000
 10.180      52.000
 10.190      52.000
 10.200      52.000
 10.210      52.000
 10.220      52.000
 10.230      52.000
 10.240      52.000
 10.250      52.000
 10.260      52.000
 10.270      52.000
 10.281      52.000
 10.291      52.000
 10.301      52.000
 10.311      52.000
 10.321      52.000
 10.331      52.000
 10.341      52.000
 10.351      52.000
 10.361      52.000
 10.371      52.000
 10.381      52.000
 10.391      52.000
 10.401      52.000
 10.411      52.000
 10.421      52.000
 10.431      52.000
 10.441      52.000
 10.451      52.000
 10.461      52.000
 10.471      52.000
 10.481      52.000
 10.491      52.000
 10.501      52.000
 10.511      52.000
 10.521      52.000
 10.531      52.000
 10.541      52.000
 10.551      52.000
 10.561      52.000
 10.571      52.000
 10.581      52.000
 10.591      52.000
 10.601      52.000
 10.611      52.000
 10.621      52.000
 10.631      52.000
 10.641      52.000
 10.651      52.000
 10.661      52.000
 10.671      52.000
 10.681      52.000
 10.691      52.000
 10.701      52.000
 10.711      52.000
 10.721      52.000
 10.731      52.000
 10.741      52.000
 10.751      52.000
 10.761      52.000
 10.771      52.000
 10.781      52.000
 10.791      52.000
 10.801      52.000
 10.811      52.000
 10.821      52.000
 10.831      52.000
 10.842      52.000
 10.852      52.000
 10.862      52.000
 10.872      52.000
 10.882      52.000
 10.892      52.000
 10.902      52.000
 10.912      52.000
 10.922      52.000
 10.932      52.000
 10.942      52.000
 10.952      52.000
 10.962      52.000
 10.972      52.000
 10.982      52.000
 10.992      52.000
 11.002      52.000
 11.012      52.000
 11.022      52.000
 11.032      52.000
 11.042      52.000
 11.052      52.000
 11.062      52.000
 11.072      52.000
 11.082      52.000
 11.092      52.000
 11.102      52.000
 11.112      52.000
 11.122      52.000
 11.132      52.000
 11.142      52.000
 11.152      52.000
 11.162      52.000
 11.172      52.000
 11.182      52.000
 11.192      52.000
 11.202      52.000
 11.212      52.000
 11.222      52.000
 11.232      52.000
 11.242      52.000
 11.252      52.000
 11.262      52.000
 11.272      52.000
 11.282      52.000
 11.292      52.000
 11.302      52.000
 11.312      52.000
 11.322      52.000
 11.332      52.000
 11.342      52.000
 11.352      52.000
 11.362      52.000
 11.372      52.000
 11.382      52.000
 11.393      52.000
 11.403      52.000
 11.413      52.000
 11.423      52.000
 11.433      52.000
 11.443      52.000
 11.453      52.000
 11.463      52.000
 11.473      52.000
 11.483      52.000
 11.493      52.000
 11.503      52.000
 11.513      52.000
 11.523      52.000
 11.533      52.000
 11.543      52.000
 11.553      52.000
 11.563      52.000
 11.573      52.000
 11.583      52.000
 11.593      52.000
 11.603      52.000
 11.613      52.000
 11.623      52.000
 11.633      52.000
 11.643      52.000
 11.653      52.000
 11.663      52.000
 11.673      52.000
 11.683      52.000
 11.693      52.000
 11.703      52.000
 11.713      52.000
 11.723      52.000
 11.733      52.000
 11.743      52.000
 11.753      52.000
 11.763      52.000
 11.773      52.000
 11.783      52.000
 11.793      52.000
 11.803      52.000
 11.813      52.000
 11.823      52.000
 11.833      52.000
 11.843      52.000
 11.853      52.000
 11.863      52.000
 11.873      52.000
 11.883      52.000
 11.893      52.000
 11.903      52.000
 11.913      52.000
 11.923      52.000
 11.933      52.000
 11.943      52.000
 11.954      52.000
 11.964      52.000
 11.974      52.000
 11.984      52.000
 11.994      52.000
 12.004      52.000
 12.014      52.000
 12.024      52.000
 12.034      52.000
 12.044      52.000
 12.054      52.000
 12.064      52.000
 12.074      52.000
 12.084      52.000
 12.094      52.000
 12.104      52.000
 12.114      52.000
 12.124      52.000
 12.134      52.000
 12.144      52.000
 12.154      52.000
 12.164      52.000
 12.174      52.000
 12.184      52.000
 12.194      52.000
 12.204      52.000
 12.214      52.000
 12.224      52.000
 12.234      52.000
 12.244      52.000
 12.254      52.000
 12.264      52.000
 12.274      52.000
 12.284      52.000
 12.294      52.000
 12.304      52.000
 12.314      52.000
 12.324      52.000
 12.334      52.000
 12.344      52.000
 12.354      52.000
 12.364      52.000
 12.374      52.000
 12.384      52.000
 12.394      52.000
 12.404      52.000
 12.414      52.000
 12.424      52.000
 12.434      52.000
 12.444      52.000
 12.454      52.000
 12.464      52.000
 12.474      52.000
 12.484      52.000
 12.494      52.000
 12.505      52.000
 12.515      52.000
 12.525      52.000
 12.535      52.000
 12.545      52.000
 12.555      52.000
 12.565      52.000
 12.575      52.000
 12.585      52.000
 12.595      52.000
 12.605      52.000
 12.615      52.000
 12.625      52.000
 12.635      52.000
 12.645      52.000
 12.655      52.000
 12.665      52.000
 12.675      52.000
 12.685      52.000
 12.695      52.000
 12.705      52.000
 12.715      52.000
 12.725      52.000
 12.735      52.000
 12.745      52.000
 12.755      52.000
 12.765      52.000
 12.775      52.000
 12.785      52.000
 12.795      52.000
 12.805      52.000
 12.815      52.000
 12.825      52.000
 12.835      52.000
 12.845      52.000
 12.855      52.000
 12.865      52.000
 12.875      52.000
 12.885      52.000
 12.895      52.000
 12.905      52.000
 12.915      52.000
 12.925      52.000
 12.935      52.000
 12.945      52.000
 12.955      52.000
 12.965      52.000
 12.975      52.000
 12.985      52.000
 12.995      52.000
 13.005      52.000
 13.015      52.000
 13.025      52.000
 13.035      52.000
 13.045      52.000
 13.055      52.000
 13.066      52.000
 13.076      52.000
 13.086      52.000
 13.096      52.000
 13.106      52.000
 13.116      52.000
 13.126      52.000
 13.136      52.000
 13.146      52.000
 13.156      52.000
 13.166      52.000
 13.176      52.000
 13.186      52.000
 13.196      52.000
 13.206      52.000
 13.216      52.000
 13.226      52.000
 13.236      52.000
 13.246      52.000
 13.256      52.000
 13.266      52.000
 13.276      52.000
 13.286      52.000
 13.296      52.000
 13.306      52.000
 13.316      52.000
 13.326      52.000
 13.336      52.000
 13.346      52.000
 13.356      52.000
 13.366      52.000
 13.376      52.000
 13.386      52.000
 13.396      52.000
 13.406      52.000
 13.416      52.000
 13.426      52.000
 13.436      52.000
 13.446      52.000
 13.456      52.000
 13.466      52.000
 13.476      52.000
 13.486      52.000
 13.496      52.000
 13.506      52.000
 13.516      52.000
 13.526      52.000
 13.536      52.000
 13.546      52.000
 13.556      52.000
 13.566      52.000
 13.576      52.000
 13.586      52.000
 13.596      52.000
 13.606      52.000
 13.616      52.000
 13.627      52.000
 13.637      52.000
 13.647      52.000
 13.657      52.000
 13.667      52.000
 13.677      52.000
 13.687      52.000
 13.697      52.000
 13.707      52.000
 13.717      52.000
 13.727      52.000
 13.737      52.000
 13.747      52.000
 13.757      52.000
 13.767      52.000
 13.777      52.000
 13.787      52.000
 13.797      52.000
 13.807      52.000
 13.817      52.000
 13.827      52.000
 13.837      52.000
 13.847      52.000
 13.857      52.000
 13.867      52.000
 13.877      52.000
 13.887      52.000
 13.897      52.000
 13.907      52.000
 13.917      52.000
 13.927      52.000
 13.937      52.000
 13.947      52.000
 13.957      52.000
 13.967      52.000
 13.977      52.000
 13.987      52.000
 13.997      52.000
 14.007      52.000
 14.017      52.000
 14.027      52.000
 14.037      52.000
 14.047      52.000
 14.057      52.000
 14.067      52.000
 14.077      52.000
 14.087      52.000
 14.097      52.000
 14.107      52.000
 14.117      52.000
 14.127      52.000
 14.137      52.000
 14.147      52.000
 14.157      52.000
 14.167      52.000
 14.178      52.000
 14.188      52.000
 14.198      52.000
 14.208      52.000
 14.218      52.000
 14.228      52.000
 14.238      52.000
 14.248      52.000
 14.258      52.000
 14.268      52.000
 14.278      52.000
 14.288      52.000
 14.298      52.000
 14.308      52.000
 14.318      52.000
 14.328      52.000
 14.338      52.000
 14.348      52.000
 14.358      52.000
 14.368      52.000
 14.378      52.000
 14.388      52.000
 14.398      52.000
 14.408      52.000
 14.418      52.000
 14.428      52.000
 14.438      52.000
 14.448      52.000
 14.458      52.000
 14.468      52.000
 14.478      52.000
 14.488      52.000
 14.498      52.000
 14.508      52.000
 14.518      52.000
 14.528      52.000
 14.538      52.000
 14.548      52.000
 14.558      52.000
 14.568      52.000
 14.578      52.000
 14.588      52.000
 14.598      52.000
 14.608      52.000
 14.618      52.000
 14.628      52.000
 14.638      52.000
 14.648      52.000
 14.658      52.000
 14.668      52.000
 14.678      52.000
 14.688      52.000
 14.698      52.000
 14.708      52.000
 14.718      52.000
 14.728      52.000
 14.739      52.000
 14.749      52.000
 14.759      52.000
 14.769      52.000
 14.779      52.000
 14.789      52.000
 14.799      52.000
 14.809      52.000
 14.819      52.000
 14.829      52.000
 14.839      52.000
 14.849      52.000
 14.859      52.000
 14.869      52.000
 14.879      52.000
 14.889      52.000
 14.899      52.000
 14.909      52.000
 14.919      52.000
 14.929      52.000
 14.939      52.000
 14.949      52.000
 14.959      52.000
 14.969      52.000
 14.979      52.000
 14.989      52.000
 14.999      52.000
 15.009      52.000
 15.019      52.000
 15.029      52.000
 15.039      52.000
 15.049      52.000
 15.059      52.000
 15.069      52.000
 15.079      52.000
 15.089      52.000
 15.099      52.000
 15.109      52.000
 15.119      52.000
 15.129      52.000
 15.139      52.000
 15.149      52.000
 15.159      52.000
 15.169      52.000
 15.179      52.000
 15.189      52.000
 15.199      52.000
 15.209      52.000
 15.219      52.000
 15.229      52.000
 15.239      52.000
 15.249      52.000
 15.259      52.000
 15.269      52.000
 15.279      52.000
 15.290      52.000
 15.300      52.000
 15.310      52.000
 15.320      52.000
 15.330      52.000
 15.340      52.000
 15.350      52.000
 15.360      52.000
 15.370      52.000
 15.380      52.000
 15.390      52.000
 15.400      52.000
 15.410      52.000
 15.420      52.000
 15.430      52.000
 15.440      52.000
 15.450      52.000
 15.460      52.000
 15.470      52.000
 15.480      52.000
 15.490      52.000
 15.500      52.000
 15.510      52.000
 15.520      52.000
 15.530      52.000
 15.540      52.000
 15.550      52.000
 15.560      52.000
 15.570      52.000
 15.580      52.000
 15.590      52.000
 15.600      52.000
 15.610      52.000
 15.620      52.000
 15.630      52.000
 15.640      52.000
 15.650      52.000
 15.660      52.000
 15.670      52.000
 15.680      52.000
 15.690      52.000
 15.700      52.000
 15.710      52.000
 15.720      52.000
 15.730      52.000
 15.740      52.000
 15.750      52.000
 15.760      52.000
 15.770      52.000
 15.780      52.000
 15.790      52.000
 15.800      52.000
 15.810      52.000
 15.820      52.000
 15.830      52.000
 15.840      52.000
 15.851      52.000
 15.861      52.000
 15.871      52.000
 15.881      52.000
 15.891      52.000
 15.901      52.000
 15.911      52.000
 15.921      52.000
 15.931      52.000
 15.941      52.000
 15.951      52.000
 15.961      52.000
 15.971      52.000
 15.981      52.000
 15.991      52.000
 16.001      52.000
 16.011      52.000
 16.021      52.000
 16.031      52.000
 16.041      52.000
 16.051      52.000
 16.061      52.000
 16.071      52.000
 16.081      52.000
 16.091      52.000
 16.101      52.000
 16.111      52.000
 16.121      52.000
 16.131      52.000
 16.141      52.000
 16.151      52.000
 16.161      52.000
 16.171      52.000
 16.181      52.000
 16.191      52.000
 16.201      52.000
 16.211      52.000
 16.221      52.000
 16.231      52.000
 16.241      52.000
 16.251      52.000
 16.261      52.000
 16.271      52.000
 16.281      52.000
 16.291      52.000
 16.301      52.000
 16.311      52.000
 16.321      52.000
 16.331      52.000
 16.341      52.000
 16.351      52.000
 16.361      52.000
 16.371      52.000
 16.381      52.000
 16.391      52.000
 16.402      52.000
 16.412      52.000
 16.422      52.000
 16.432      52.000
 16.442      52.000
 16.452      52.000
 16.462      52.000
 16.472      52.000
 16.482      52.000
 16.492      52.000
 16.502      52.000
 16.512      52.000
 16.522      52.000
 16.532      52.000
 16.542      52.000
 16.552      52.000
 16.562      52.000
 16.572      52.000
 16.582      52.000
 16.592      52.000
 16.602      52.000
 16.612      52.000
 16.622      52.000
 16.632      52.000
 16.642      52.000
 16.652      52.000
 16.662      52.000
 16.672      52.000
 16.682      52.000
 16.692      52.000
 16.702      52.000
 16.712      52.000
 16.722      52.000
 16.732      52.000
 16.742      52.000
 16.752      52.000
 16.762      52.000
 16.772      52.000
 16.782      52.000
 16.792      52.000
 16.802      52.000
 16.812      52.000
 16.822      52.000
 16.832      52.000
 16.842      52.000
 16.852      52.000
 16.862      52.000
 16.872      52.000
 16.882      52.000
 16.892      52.000
 16.902      52.000
 16.912      52.000
 16.922      52.000
 16.932      52.000
 16.942      52.000
 16.952      52.000
 16.963      52.000
 16.973      52.000
 16.983      52.000
 16.993      52.000
 17.003      52.000
 17.013      52.000
 17.023      52.000
 17.033      52.000
 17.043      52.000
 17.053      52.000
 17.063      52.000
 17.073      52.000
 17.083      52.000
 17.093      52.000
 17.103      52.000
 17.113      52.000
 17.123      52.000
 17.133      52.000
 17.143      52.000
 17.153      52.000
 17.163      52.000
 17.173      52.000
 17.183      52.000
 17.193      52.000
 17.203      52.000
 17.213      52.000
 17.223      52.000
 17.233      52.000
 17.243      52.000
 17.253      52.000
 17.263      52.000
 17.273      52.000
 17.283      52.000
 17.293      52.000
 17.303      52.000
 17.313      52.000
 17.323      52.000
 17.333      52.000
 17.343      52.000
 17.353      52.000
 17.363      52.000
 17.373      52.000
 17.383      52.000
 17.393      52.000
 17.403      52.000
 17.413      52.000
 17.423      52.000
 17.433      52.000
 17.443      52.000
 17.453      52.000
 17.463      52.000
 17.473      52.000
 17.483      52.000
 17.493      52.000
 17.503      52.000
 17.514      52.000
 17.524      52.000
 17.534      52.000
 17.544      52.000
 17.554      52.000
 17.564      52.000
 17.574      52.000
 17.584      52.000
 17.594      52.000
 17.604      52.000
 17.614      52.000
 17.624      52.000
 17.634      52.000
 17.644      52.000
 17.654      52.000
 17.664      52.000
 17.674      52.000
 17.684      52.000
 17.694      52.000
 17.704      52.000
 17.714      52.000
 17.724      52.000
 17.734      52.000
 17.744      52.000
 17.754      52.000
 17.764      52.000
 17.774      52.000
 17.784      52.000
 17.794      52.000
 17.804      52.000
 17.814      52.000
 17.824      52.000
 17.834      52.000
 17.844      52.000
 17.854      52.000
 17.864      52.000
 17.874      52.000
 17.884      52.000
 17.894      52.000
 17.904      52.000
 17.914      52.000
 17.924      52.000
 17.934      52.000
 17.944      52.000
 17.954      52.000
 17.964      52.000
 17.974      52.000
 17.984      52.000
 17.994      52.000
 18.004      52.000
 18.014      52.000
 18.024      52.000
 18.034      52.000
 18.044      52.000
 18.054      52.000
 18.064      52.000
 18.075      52.000
 18.085      52.000
 18.095      52.000
 18.105      52.000
 18.115      52.000
 18.125      52.000
 18.135      52.000
 18.145      52.000
 18.155      52.000
 18.165      52.000
 18.175      52.000
 18.185      52.000
 18.195      52.000
 18.205      52.000
 18.215      52.000
 18.225      52.000
 18.235      52.000
 18.245      52.000
 18.255      52.000
 18.265      52.000
 18.275      52.000
 18.285      52.000
 18.295      52.000
 18.305      52.000
 18.315      52.000
 18.325      52.000
 18.335      52.000
 18.345      52.000
 18.355      52.000
 18.365      52.000
 18.375      52.000
 18.385      52.000
 18.395      52.000
 18.405      52.000
 18.415      52.000
 18.425      52.000
 18.435      52.000
 18.445      52.000
 18.455      52.000
 18.465      52.000
 18.475      52.000
 18.485      52.000
 18.495      52.000
 18.505      52.000
 18.515      52.000
 18.525      52.000
 18.535      52.000
 18.545      52.000
 18.555      52.000
 18.565      52.000
 18.575      52.000
 18.585      52.000
 18.595      52.000
 18.605      52.000
 18.615      52.000
 18.625      52.000
 18.636      52.000
 18.646      52.000
 18.656      52.000
 18.666      52.000
 18.676      52.000
 18.686      52.000
 18.696      52.000
 18.706      52.000
 18.716      52.000
 18.726      52.000
 18.736      52.000
 18.746      52.000
 18.756      52.000
 18.766      52.000
 18.776      52.000
 18.786      52.000
 18.796      52.000
 18.806      52.000
 18.816      52.000
 18.826      52.000
 18.836      52.000
 18.846      52.000
 18.856      52.000
 18.866      52.000
 18.876      52.000
 18.886      52.000
 18.896      52.000
 18.906      52.000
 18.916      52.000
 18.926      52.000
 18.936      52.000
 18.946      52.000
 18.956      52.000
 18.966      52.000
 18.976      52.000
 18.986      52.000
 18.996      52.000
 19.006      52.000
 19.016      52.000
 19.026      52.000
 19.036      52.000
 19.046      52.000
 19.056      52.000
 19.066      52.000
 19.076      52.000
 19.086      52.000
 19.096      52.000
 19.106      52.000
 19.116      52.000
 19.126      52.000
 19.136      52.000
 19.146      52.000
 19.156      52.000
 19.166      52.000
 19.176      52.000
 19.187      52.000
 19.197      52.000
 19.207      52.000
 19.217      52.000
 19.227      52.000
 19.237      52.000
 19.247      52.000
 19.257      52.000
 19.267      52.000
 19.277      52.000
 19.287      52.000
 19.297      52.000
 19.307      52.000
 19.317      52.000
 19.327      52.000
 19.337      52.000
 19.347      52.000
 19.357      52.000
 19.367      52.000
 19.377      52.000
 19.387      52.000
 19.397      52.000
 19.407      52.000
 19.417      52.000
 19.427      52.000
 19.437      52.000
 19.447      52.000
 19.457      52.000
 19.467      52.000
 19.477      52.000
 19.487      52.000
 19.497      52.000
 19.507      52.000
 19.517      52.000
 19.527      52.000
 19.537      52.000
 19.547      52.000
 19.557      52.000
 19.567      52.000
 19.577      52.000
 19.587      52.000
 19.597      52.000
 19.607      52.000
 19.617      52.000
 19.627      52.000
 19.637      52.000
 19.647      52.000
 19.657      52.000
 19.667      52.000
 19.677      52.000
 19.687      52.000
 19.697      52.000
 19.707      52.000
 19.717      52.000
 19.727      52.000
 19.737      52.000
 19.748      52.000
 19.758      52.000
 19.768      52.000
 19.778      52.000
 19.788      52.000
 19.798      52.000
 19.808      52.000
 19.818      52.000
 19.828      52.000
 19.838      52.000
 19.848      52.000
 19.858      52.000
 19.868      52.000
 19.878      52.000
 19.888      52.000
 19.898      52.000
 19.908      52.000
 19.918      52.000
 19.928      52.000
 19.938      52.000
 19.948      52.000
 19.958      52.000
 19.968      52.000
 19.978      52.000
