2theta /stopnie	natê¿enie/jednostki umowne
 10.000     100.000
 10.010     100.000
 10.020     100.000
 10.030     100.000
 10.040     100.000
 10.050     100.000
 10.060     100.000
 10.070     100.000
 10.080     100.000
 10.090     100.000
 10.100     100.000
 10.110     100.000
 10.120     100.000
 10.130     100.000
 10.140     100.000
 10.150     100.000
 10.160     100.000
 10.170     100.000
 10.180     100.000
 10.190     100.000
 10.200     100.000
 10.210     100.000
 10.220     100.000
 10.230     100.000
 10.240     100.000
 10.250     100.000
 10.260     100.000
 10.270     100.000
 10.281     100.000
 10.291     100.000
 10.301     100.000
 10.311     100.000
 10.321     100.000
 10.331     100.000
 10.341     100.000
 10.351     100.000
 10.361     100.000
 10.371     100.000
 10.381     100.000
 10.391     100.000
 10.401     100.000
 10.411     100.000
 10.421     100.000
 10.431     100.000
 10.441     100.000
 10.451     100.000
 10.461     100.000
 10.471     100.000
 10.481     100.000
 10.491     100.000
 10.501     100.000
 10.511     100.000
 10.521     100.000
 10.531     100.000
 10.541     100.000
 10.551     100.000
 10.561     100.000
 10.571     100.000
 10.581     100.000
 10.591     100.000
 10.601     100.000
 10.611     100.000
 10.621     100.000
 10.631     100.000
 10.641     100.000
 10.651     100.000
 10.661     100.000
 10.671     100.000
 10.681     100.000
 10.691     100.000
 10.701     100.000
 10.711     100.000
 10.721     100.000
 10.731     100.000
 10.741     100.000
 10.751     100.000
 10.761     100.000
 10.771     100.000
 10.781     100.000
 10.791     100.000
 10.801     100.000
 10.811     100.000
 10.821     100.000
 10.831     100.000
 10.842     100.000
 10.852     100.000
 10.862     100.000
 10.872     100.000
 10.882     100.000
 10.892     100.000
 10.902     100.000
 10.912     100.000
 10.922     100.000
 10.932     100.000
 10.942     100.000
 10.952     100.000
 10.962     100.000
 10.972     100.000
 10.982     100.000
 10.992     100.000
 11.002     100.000
 11.012     100.000
 11.022     100.000
 11.032     100.000
 11.042     100.000
 11.052     100.000
 11.062     100.000
 11.072     100.000
 11.082     100.000
 11.092     100.000
 11.102     100.000
 11.112     100.000
 11.122     100.000
 11.132     100.000
 11.142     100.000
 11.152     100.000
 11.162     100.000
 11.172     100.000
 11.182     100.000
 11.192     100.000
 11.202     100.000
 11.212     100.000
 11.222     100.000
 11.232     100.000
 11.242     100.000
 11.252     100.000
 11.262     100.000
 11.272     100.000
 11.282     100.000
 11.292     100.000
 11.302     100.000
 11.312     100.000
 11.322     100.000
 11.332     100.000
 11.342     100.000
 11.352     100.000
 11.362     100.000
 11.372     100.000
 11.382     100.000
 11.393     100.000
 11.403     100.000
 11.413     100.000
 11.423     100.000
 11.433     100.000
 11.443     100.000
 11.453     100.000
 11.463     100.000
 11.473     100.000
 11.483     100.000
 11.493     100.000
 11.503     100.000
 11.513     100.000
 11.523     100.000
 11.533     100.000
 11.543     100.000
 11.553     100.000
 11.563     100.000
 11.573     100.000
 11.583     100.000
 11.593     100.000
 11.603     100.000
 11.613     100.000
 11.623     100.000
 11.633     100.000
 11.643     100.000
 11.653     100.000
 11.663     100.000
 11.673     100.000
 11.683     100.000
 11.693     100.000
 11.703     100.000
 11.713     100.000
 11.723     100.000
 11.733     100.000
 11.743     100.000
 11.753     100.000
 11.763     100.000
 11.773     100.000
 11.783     100.000
 11.793     100.000
 11.803     100.000
 11.813     100.000
 11.823     100.000
 11.833     100.000
 11.843     100.000
 11.853     100.000
 11.863     100.000
 11.873     100.000
 11.883     100.000
 11.893     100.000
 11.903     100.000
 11.913     100.000
 11.923     100.000
 11.933     100.000
 11.943     100.000
 11.954     100.000
 11.964     100.000
 11.974     100.000
 11.984     100.000
 11.994     100.000
 12.004     100.000
 12.014     100.000
 12.024     100.000
 12.034     100.000
 12.044     100.000
 12.054     100.000
 12.064     100.000
 12.074     100.000
 12.084     100.000
 12.094     100.000
 12.104     100.000
 12.114     100.000
 12.124     100.000
 12.134     100.000
 12.144     100.000
 12.154     100.000
 12.164     100.000
 12.174     100.000
 12.184     100.000
 12.194     100.000
 12.204     100.000
 12.214     100.000
 12.224     100.000
 12.234     100.000
 12.244     100.000
 12.254     100.000
 12.264     100.000
 12.274     100.000
 12.284     100.000
 12.294     100.000
 12.304     100.000
 12.314     100.000
 12.324     100.000
 12.334     100.000
 12.344     100.000
 12.354     100.000
 12.364     100.000
 12.374     100.000
 12.384     100.000
 12.394     100.000
 12.404     100.000
 12.414     100.000
 12.424     100.000
 12.434     100.000
 12.444     100.000
 12.454     100.000
 12.464     100.000
 12.474     100.000
 12.484     100.000
 12.494     100.000
 12.505     100.000
 12.515     100.000
 12.525     100.000
 12.535     100.000
 12.545     100.000
 12.555     100.000
 12.565     100.000
 12.575     100.000
 12.585     100.000
 12.595     100.000
 12.605     100.000
 12.615     100.000
 12.625     100.000
 12.635     100.000
 12.645     100.000
 12.655     100.000
 12.665     100.000
 12.675     100.000
 12.685     100.000
 12.695     100.000
 12.705     100.000
 12.715     100.000
 12.725     100.000
 12.735     100.000
 12.745     100.000
 12.755     100.000
 12.765     100.000
 12.775     100.000
 12.785     100.000
 12.795     100.000
 12.805     100.000
 12.815     100.000
 12.825     100.000
 12.835     100.000
 12.845     100.000
 12.855     100.000
 12.865     100.000
 12.875     100.000
 12.885     100.000
 12.895     100.000
 12.905     100.000
 12.915     100.000
 12.925     100.000
 12.935     100.000
 12.945     100.000
 12.955     100.000
 12.965     100.000
 12.975     100.000
 12.985     100.000
 12.995     100.000
 13.005     100.000
 13.015     100.000
 13.025     100.000
 13.035     100.000
 13.045     100.000
 13.055     100.000
 13.066     100.000
 13.076     100.000
 13.086     100.000
 13.096     100.000
 13.106     100.000
 13.116     100.000
 13.126     100.000
 13.136     100.000
 13.146     100.000
 13.156     100.000
 13.166     100.000
 13.176     100.000
 13.186     100.000
 13.196     100.000
 13.206     100.000
 13.216     100.000
 13.226     100.000
 13.236     100.000
 13.246     100.000
 13.256     100.000
 13.266     100.000
 13.276     100.000
 13.286     100.000
 13.296     100.000
 13.306     100.000
 13.316     100.000
 13.326     100.000
 13.336     100.000
 13.346     100.000
 13.356     100.000
 13.366     100.000
 13.376     100.000
 13.386     100.000
 13.396     100.000
 13.406     100.000
 13.416     100.000
 13.426     100.000
 13.436     100.000
 13.446     100.000
 13.456     100.000
 13.466     100.000
 13.476     100.000
 13.486     100.000
 13.496     100.000
 13.506     100.000
 13.516     100.000
 13.526     100.000
 13.536     100.000
 13.546     100.000
 13.556     100.000
 13.566     100.000
 13.576     100.000
 13.586     100.000
 13.596     100.000
 13.606     100.000
 13.616     100.000
 13.627     100.000
 13.637     100.000
 13.647     100.000
 13.657     100.000
 13.667     100.000
 13.677     100.000
 13.687     100.000
 13.697     100.000
 13.707     100.000
 13.717     100.000
 13.727     100.000
 13.737     100.000
 13.747     100.000
 13.757     100.000
 13.767     100.000
 13.777     100.000
 13.787     100.000
 13.797     100.000
 13.807     100.000
 13.817     100.000
 13.827     100.000
 13.837     100.000
 13.847     100.000
 13.857     100.000
 13.867     100.000
 13.877     100.000
 13.887     100.000
 13.897     100.000
 13.907     100.000
 13.917     100.000
 13.927     100.000
 13.937     100.000
 13.947     100.000
 13.957     100.000
 13.967     100.000
 13.977     100.000
 13.987     100.000
 13.997     100.000
 14.007     100.000
 14.017     100.000
 14.027     100.000
 14.037     100.000
 14.047     100.000
 14.057     100.000
 14.067     100.000
 14.077     100.000
 14.087     100.000
 14.097     100.000
 14.107     100.000
 14.117     100.000
 14.127     100.000
 14.137     100.000
 14.147     100.000
 14.157     100.000
 14.167     100.000
 14.178     100.000
 14.188     100.000
 14.198     100.000
 14.208     100.000
 14.218     100.000
 14.228     100.000
 14.238     100.000
 14.248     100.000
 14.258     100.000
 14.268     100.000
 14.278     100.000
 14.288     100.000
 14.298     100.000
 14.308     100.000
 14.318     100.000
 14.328     100.000
 14.338     100.000
 14.348     100.000
 14.358     100.000
 14.368     100.000
 14.378     100.000
 14.388     100.000
 14.398     100.000
 14.408     100.000
 14.418     100.000
 14.428     100.000
 14.438     100.000
 14.448     100.000
 14.458     100.000
 14.468     100.000
 14.478     100.000
 14.488     100.000
 14.498     100.000
 14.508     100.000
 14.518     100.000
 14.528     100.000
 14.538     100.000
 14.548     100.000
 14.558     100.000
 14.568     100.000
 14.578     100.000
 14.588     100.000
 14.598     100.000
 14.608     100.000
 14.618     100.000
 14.628     100.000
 14.638     100.000
 14.648     100.000
 14.658     100.000
 14.668     100.000
 14.678     100.000
 14.688     100.000
 14.698     100.000
 14.708     100.000
 14.718     100.000
 14.728     100.000
 14.739     100.000
 14.749     100.000
 14.759     100.000
 14.769     100.000
 14.779     100.000
 14.789     100.000
 14.799     100.000
 14.809     100.000
 14.819     100.000
 14.829     100.000
 14.839     100.000
 14.849     100.000
 14.859     100.000
 14.869     100.000
 14.879     100.000
 14.889     100.000
 14.899     100.000
 14.909     100.000
 14.919     100.000
 14.929     100.000
 14.939     100.000
 14.949     100.000
 14.959     100.000
 14.969     100.000
 14.979     100.000
 14.989     100.000
 14.999     100.000
 15.009     100.000
 15.019     100.000
 15.029     100.000
 15.039     100.000
 15.049     100.000
 15.059     100.000
 15.069     100.000
 15.079     100.000
 15.089     100.000
 15.099     100.000
 15.109     100.000
 15.119     100.000
 15.129     100.000
 15.139     100.000
 15.149     100.000
 15.159     100.000
 15.169     100.000
 15.179     100.000
 15.189     100.000
 15.199     100.000
 15.209     100.000
 15.219     100.000
 15.229     100.000
 15.239     100.000
 15.249     100.000
 15.259     100.000
 15.269     100.000
 15.279     100.000
 15.290     100.000
 15.300     100.000
 15.310     100.000
 15.320     100.000
 15.330     100.000
 15.340     100.000
 15.350     100.000
 15.360     100.000
 15.370     100.000
 15.380     100.000
 15.390     100.000
 15.400     100.000
 15.410     100.000
 15.420     100.000
 15.430     100.000
 15.440     100.000
 15.450     100.000
 15.460     100.000
 15.470     100.000
 15.480     100.000
 15.490     100.000
 15.500     100.000
 15.510     100.000
 15.520     100.000
 15.530     100.000
 15.540     100.000
 15.550     100.000
 15.560     100.000
 15.570     100.000
 15.580     100.000
 15.590     100.000
 15.600     100.000
 15.610     100.000
 15.620     100.000
 15.630     100.000
 15.640     100.000
 15.650     100.000
 15.660     100.000
 15.670     100.000
 15.680     100.000
 15.690     100.000
 15.700     100.000
 15.710     100.000
 15.720     100.000
 15.730     100.000
 15.740     100.000
 15.750     100.000
 15.760     100.000
 15.770     100.000
 15.780     100.000
 15.790     100.000
 15.800     100.000
 15.810     100.000
 15.820     100.000
 15.830     100.000
 15.840     100.000
 15.851     100.000
 15.861     100.000
 15.871     100.000
 15.881     100.000
 15.891     100.000
 15.901     100.000
 15.911     100.000
 15.921     100.000
 15.931     100.000
 15.941     100.000
 15.951     100.000
 15.961     100.000
 15.971     100.000
 15.981     100.000
 15.991     100.000
 16.001     100.000
 16.011     100.000
 16.021     100.000
 16.031     100.000
 16.041     100.000
 16.051     100.000
 16.061     100.000
 16.071     100.000
 16.081     100.000
 16.091     100.000
 16.101     100.000
 16.111     100.000
 16.121     100.000
 16.131     100.000
 16.141     100.000
 16.151     100.000
 16.161     100.000
 16.171     100.000
 16.181     100.000
 16.191     100.000
 16.201     100.000
 16.211     100.000
 16.221     100.000
 16.231     100.000
 16.241     100.000
 16.251     100.000
 16.261     100.000
 16.271     100.000
 16.281     100.000
 16.291     100.000
 16.301     100.000
 16.311     100.000
 16.321     100.000
 16.331     100.000
 16.341     100.000
 16.351     100.000
 16.361     100.000
 16.371     100.000
 16.381     100.000
 16.391     100.000
 16.402     100.000
 16.412     100.000
 16.422     100.000
 16.432     100.000
 16.442     100.000
 16.452     100.000
 16.462     100.000
 16.472     100.000
 16.482     100.000
 16.492     100.000
 16.502     100.000
 16.512     100.000
 16.522     100.000
 16.532     100.000
 16.542     100.000
 16.552     100.000
 16.562     100.000
 16.572     100.000
 16.582     100.000
 16.592     100.000
 16.602     100.000
 16.612     100.000
 16.622     100.000
 16.632     100.000
 16.642     100.000
 16.652     100.000
 16.662     100.000
 16.672     100.000
 16.682     100.000
 16.692     100.000
 16.702     100.000
 16.712     100.000
 16.722     100.000
 16.732     100.000
 16.742     100.000
 16.752     100.000
 16.762     100.000
 16.772     100.000
 16.782     100.000
 16.792     100.000
 16.802     100.000
 16.812     100.000
 16.822     100.000
 16.832     100.000
 16.842     100.000
 16.852     100.000
 16.862     100.000
 16.872     100.000
 16.882     100.000
 16.892     100.000
 16.902     100.000
 16.912     100.000
 16.922     100.000
 16.932     100.000
 16.942     100.000
 16.952     100.000
 16.963     100.000
 16.973     100.000
 16.983     100.000
 16.993     100.000
 17.003     100.000
 17.013     100.000
 17.023     100.000
 17.033     100.000
 17.043     100.000
 17.053     100.000
 17.063     100.000
 17.073     100.000
 17.083     100.000
 17.093     100.000
 17.103     100.000
 17.113     100.000
 17.123     100.000
 17.133     100.000
 17.143     100.000
 17.153     100.000
 17.163     100.000
 17.173     100.000
 17.183     100.000
 17.193     100.000
 17.203     100.000
 17.213     100.000
 17.223     100.000
 17.233     100.000
 17.243     100.000
 17.253     100.000
 17.263     100.000
 17.273     100.000
 17.283     100.000
 17.293     100.000
 17.303     100.000
 17.313     100.000
 17.323     100.000
 17.333     100.000
 17.343     100.000
 17.353     100.000
 17.363     100.000
 17.373     100.000
 17.383     100.000
 17.393     100.000
 17.403     100.000
 17.413     100.000
 17.423     100.000
 17.433     100.000
 17.443     100.000
 17.453     100.000
 17.463     100.000
 17.473     100.000
 17.483     100.000
 17.493     100.000
 17.503     100.000
 17.514     100.000
 17.524     100.000
 17.534     100.000
 17.544     100.000
 17.554     100.000
 17.564     100.000
 17.574     100.000
 17.584     100.000
 17.594     100.000
 17.604     100.000
 17.614     100.000
 17.624     100.000
 17.634     100.000
 17.644     100.000
 17.654     100.000
 17.664     100.000
 17.674     100.000
 17.684     100.000
 17.694     100.000
 17.704     100.000
 17.714     100.000
 17.724     100.000
 17.734     100.000
 17.744     100.000
 17.754     100.000
 17.764     100.000
 17.774     100.000
 17.784     100.000
 17.794     100.000
 17.804     100.000
 17.814     100.000
 17.824     100.000
 17.834     100.000
 17.844     100.000
 17.854     100.000
 17.864     100.000
 17.874     100.000
 17.884     100.000
 17.894     100.000
 17.904     100.000
 17.914     100.000
 17.924     100.000
 17.934     100.000
 17.944     100.000
 17.954     100.000
 17.964     100.000
 17.974     100.000
 17.984     100.000
 17.994     100.000
 18.004     100.000
 18.014     100.000
 18.024     100.000
 18.034     100.000
 18.044     100.000
 18.054     100.000
 18.064     100.000
 18.075     100.000
 18.085     100.000
 18.095     100.000
 18.105     100.000
 18.115     100.000
 18.125     100.000
 18.135     100.000
 18.145     100.000
 18.155     100.000
 18.165     100.000
 18.175     100.000
 18.185     100.000
 18.195     100.000
 18.205     100.000
 18.215     100.000
 18.225     100.000
 18.235     100.000
 18.245     100.000
 18.255     100.000
 18.265     100.000
 18.275     100.000
 18.285     100.000
 18.295     100.000
 18.305     100.000
 18.315     100.000
 18.325     100.000
 18.335     100.000
 18.345     100.000
 18.355     100.000
 18.365     100.000
 18.375     100.000
 18.385     100.000
 18.395     100.000
 18.405     100.000
 18.415     100.000
 18.425     100.000
 18.435     100.000
 18.445     100.000
 18.455     100.000
 18.465     100.000
 18.475     100.000
 18.485     100.000
 18.495     100.000
 18.505     100.000
 18.515     100.000
 18.525     100.000
 18.535     100.000
 18.545     100.000
 18.555     100.000
 18.565     100.000
 18.575     100.000
 18.585     100.000
 18.595     100.000
 18.605     100.000
 18.615     100.000
 18.625     100.000
 18.636     100.000
 18.646     100.000
 18.656     100.000
 18.666     100.000
 18.676     100.000
 18.686     100.000
 18.696     100.000
 18.706     100.000
 18.716     100.000
 18.726     100.000
 18.736     100.000
 18.746     100.000
 18.756     100.000
 18.766     100.000
 18.776     100.000
 18.786     100.000
 18.796     100.000
 18.806     100.000
 18.816     100.000
 18.826     100.000
 18.836     100.000
 18.846     100.000
 18.856     100.000
 18.866     100.000
 18.876     100.000
 18.886     100.000
 18.896     100.000
 18.906     100.000
 18.916     100.000
 18.926     100.000
 18.936     100.000
 18.946     100.000
 18.956     100.000
 18.966     100.000
 18.976     100.000
 18.986     100.000
 18.996     100.000
 19.006     100.000
 19.016     100.000
 19.026     100.000
 19.036     100.000
 19.046     100.000
 19.056     100.000
 19.066     100.000
 19.076     100.000
 19.086     100.000
 19.096     100.000
 19.106     100.000
 19.116     100.000
 19.126     100.000
 19.136     100.000
 19.146     100.000
 19.156     100.000
 19.166     100.000
 19.176     100.000
 19.187     100.000
 19.197     100.000
 19.207     100.000
 19.217     100.000
 19.227     100.000
 19.237     100.000
 19.247     100.000
 19.257     100.000
 19.267     100.000
 19.277     100.000
 19.287     100.000
 19.297     100.000
 19.307     100.000
 19.317     100.000
 19.327     100.000
 19.337     100.000
 19.347     100.000
 19.357     100.000
 19.367     100.000
 19.377     100.000
 19.387     100.000
 19.397     100.000
 19.407     100.000
 19.417     100.000
 19.427     100.000
 19.437     100.000
 19.447     100.000
 19.457     100.000
 19.467     100.000
 19.477     100.000
 19.487     100.000
 19.497     100.000
 19.507     100.000
 19.517     100.000
 19.527     100.000
 19.537     100.000
 19.547     100.000
 19.557     100.000
 19.567     100.000
 19.577     100.000
 19.587     100.000
 19.597     100.000
 19.607     100.000
 19.617     100.000
 19.627     100.000
 19.637     100.000
 19.647     100.000
 19.657     100.000
 19.667     100.000
 19.677     100.000
 19.687     100.000
 19.697     100.000
 19.707     100.000
 19.717     100.000
 19.727     100.000
 19.737     100.000
 19.748     100.000
 19.758     100.000
 19.768     100.000
 19.778     100.000
 19.788     100.000
 19.798     100.000
 19.808     100.000
 19.818     100.000
 19.828     100.000
 19.838     100.000
 19.848     100.000
 19.858     100.000
 19.868     100.000
 19.878     100.000
 19.888     100.000
 19.898     100.000
 19.908     100.000
 19.918     100.000
 19.928     100.000
 19.938     100.000
 19.948     100.000
 19.958     100.000
 19.968     100.000
 19.978     100.000
